LabVIEW Measurement	
Writer_Version	2
Reader_Version	2
Separator	Tab
Decimal_Separator	,
Multi_Headings	Yes
X_Columns	No
Time_Pref	Relative
Operator	Laboratoire
Date	2019/01/25
Time	14:32:08,5703933833530238181
***End_of_Header***	
	
Channels	6						
Samples	100	100	1000	1000	1000	1000	
Date	2019/01/25	2019/01/25	2019/01/25	2019/01/25	2019/01/25	2019/01/25	
Time	14:32:08,7843999862670898438	14:32:08,5703933833530238181	14:32:08,7843999862670898438	14:32:08,7843999862670898438	14:32:08,7843999862670898438	14:32:08,7843999862670898438	
Y_Unit_Label		Volts					
X_Dimension	Time	Time	Time	Time	Time	Time	
X0	0,0000000000000000E+0	0,0000000000000000E+0	0,0000000000000000E+0	0,0000000000000000E+0	0,0000000000000000E+0	0,0000000000000000E+0	
Delta_X	1,000000	0,001000	1,000000	1,000000	1,000000	1,000000	
***End_of_Header***							
X_Value	Untitled	Tension	Untitled 1	Untitled 2	Untitled 3	Untitled 4	Comment
	0,000000	-4,184154	0,000000	-4,184154	0,000000	-4,000000
	0,001000	-5,214237	9,900000E-5	-4,308881	9,900000E-5	2,147484E+9
	0,002000	-4,487570	0,000198	-4,432624	0,000198	2,147484E+9
	0,003000	-2,072996	0,000297	-4,554986	0,000297	2,147484E+9
	0,004000	0,953509	0,000396	-4,674858	0,000396	2,147484E+9
	0,005000	3,475171	0,000495	-4,790478	0,000495	2,147484E+9
	0,006000	4,589393	0,000594	-4,899547	0,000594	2,147484E+9
	0,007000	3,712294	0,000693	-4,999374	0,000693	2,147484E+9
	0,008000	1,328316	0,000792	-5,087044	0,000792	2,147484E+9
	0,009000	-1,698188	0,000891	-5,159603	0,000891	2,147484E+9
	0,010000	-4,245347	0,000990	-5,214237	0,000990	2,147484E+9
	0,011000	-5,214237	0,001089	-5,248438	0,001089	-2,147484E+9
	0,012000	-4,431476	0,001188	-5,260143	0,001188	-2,147484E+9
	0,013000	-1,983756	0,001287	-5,247836	0,001287	-2,147484E+9
	0,014000	1,045298	0,001386	-5,210617	0,001386	-2,147484E+9
	0,015000	3,533814	0,001485	-5,148216	0,001485	-2,147484E+9
	0,016000	4,602142	0,001584	-5,060973	0,001584	-2,147484E+9
	0,017000	3,653650	0,001683	-4,949781	0,001683	-2,147484E+9
	0,018000	1,231427	0,001782	-4,815987	0,001782	-2,147484E+9
	0,019000	-1,797627	0,001881	-4,661281	0,001881	-2,147484E+9
	0,020000	-4,311640	0,001980	-4,487570	0,001980	-2,147484E+9
	0,021000	-5,214237	0,002079	-4,296846	0,002079	2,147484E+9
	0,022000	-4,370283	0,002178	-4,091072	0,002178	2,147484E+9
	0,023000	-1,884317	0,002277	-3,872077	0,002277	2,147484E+9
	0,024000	1,139637	0,002376	-3,641478	0,002376	2,147484E+9
	0,025000	3,595007	0,002475	-3,400640	0,002475	2,147484E+9
	0,026000	4,614890	0,002574	-3,150654	0,002574	2,147484E+9
	0,027000	3,597557	0,002673	-2,892352	0,002673	2,147484E+9
	0,028000	1,134538	0,002772	-2,626349	0,002772	2,147484E+9
	0,029000	-1,891966	0,002871	-2,353105	0,002871	2,147484E+9
	0,030000	-4,372833	0,002970	-2,072996	0,002970	2,147484E+9
	0,031000	-5,214237	0,003069	-1,786393	0,003069	-2,147484E+9
	0,032000	-4,306540	0,003168	-1,493743	0,003168	-2,147484E+9
	0,033000	-1,789978	0,003267	-1,195629	0,003267	-2,147484E+9
	0,034000	1,239076	0,003366	-0,892822	0,003366	-2,147484E+9
	0,035000	3,653650	0,003465	-0,586307	0,003465	-2,147484E+9
	0,036000	4,602142	0,003564	-0,277291	0,003564	-2,147484E+9
	0,037000	3,531264	0,003663	0,032819	0,003663	-2,147484E+9
	0,038000	1,037649	0,003762	0,342451	0,003762	-2,147484E+9
	0,039000	-1,991405	0,003861	0,649923	0,003861	-2,147484E+9
	0,040000	-4,434026	0,003960	0,953509	0,003960	-2,147484E+9
	0,041000	-5,214237	0,004059	1,251506	0,004059	2,147484E+9
	0,042000	-4,242798	0,004158	1,542302	0,004158	2,147484E+9
	0,043000	-1,687990	0,004257	1,824430	0,004257	2,147484E+9
	0,044000	1,338515	0,004356	2,096613	0,004356	2,147484E+9
	0,045000	3,714843	0,004455	2,357787	0,004455	2,147484E+9
	0,046000	4,591943	0,004554	2,607105	0,004554	2,147484E+9
	0,047000	3,470071	0,004653	2,843922	0,004653	2,147484E+9
	0,048000	0,940760	0,004752	3,067763	0,004752	2,147484E+9
	0,049000	-2,088294	0,004851	3,278275	0,004851	2,147484E+9
	0,050000	-4,492669	0,004950	3,475171	0,004950	2,147484E+9
	0,051000	-5,214237	0,005049	3,658171	0,005049	-2,147484E+9
	0,052000	-4,176505	0,005148	3,826951	0,005148	-2,147484E+9
	0,053000	-1,591101	0,005247	3,981091	0,005247	-2,147484E+9
	0,054000	1,432854	0,005346	4,120048	0,005346	-2,147484E+9
	0,055000	3,768387	0,005445	4,243140	0,005445	-2,147484E+9
	0,056000	4,576645	0,005544	4,349553	0,005544	-2,147484E+9
	0,057000	3,406328	0,005643	4,438366	0,005643	-2,147484E+9
	0,058000	0,846421	0,005742	4,508595	0,005742	-2,147484E+9
	0,059000	-2,185183	0,005841	4,559248	0,005841	-2,147484E+9
	0,060000	-4,548763	0,005940	4,589393	0,005940	-2,147484E+9
	0,061000	-5,214237	0,006039	4,598229	0,006039	2,147484E+9
	0,062000	-4,110213	0,006138	4,585148	0,006138	2,147484E+9
	0,063000	-1,494212	0,006237	4,549795	0,006237	2,147484E+9
	0,064000	1,527193	0,006336	4,492108	0,006336	2,147484E+9
	0,065000	3,824481	0,006435	4,412345	0,006435	2,147484E+9
	0,066000	4,563896	0,006534	4,311086	0,006534	2,147484E+9
	0,067000	3,337486	0,006633	4,189211	0,006633	2,147484E+9
	0,068000	0,746982	0,006732	4,047863	0,006732	2,147484E+9
	0,069000	-2,276972	0,006831	3,888395	0,006831	2,147484E+9
	0,070000	-4,602307	0,006930	3,712294	0,006930	2,147484E+9
	0,071000	-5,214237	0,007029	3,521110	0,007029	-2,147484E+9
	0,072000	-4,043920	0,007128	3,316382	0,007128	-2,147484E+9
	0,073000	-1,394773	0,007227	3,099559	0,007227	-2,147484E+9
	0,074000	1,618983	0,007326	2,871948	0,007326	-2,147484E+9
	0,075000	3,878025	0,007425	2,634670	0,007425	-2,147484E+9
	0,076000	4,551148	0,007524	2,388636	0,007524	-2,147484E+9
	0,077000	3,268644	0,007623	2,134545	0,007623	-2,147484E+9
	0,078000	0,650093	0,007722	1,872907	0,007722	-2,147484E+9
	0,079000	-2,373861	0,007821	1,604077	0,007821	-2,147484E+9
	0,080000	-4,655851	0,007920	1,328316	0,007920	-2,147484E+9
	0,081000	-5,214237	0,008019	1,045851	0,008019	2,147484E+9
	0,082000	-3,969979	0,008118	0,756947	0,008118	2,147484E+9
	0,083000	-1,295334	0,008217	0,461977	0,008217	2,147484E+9
	0,084000	1,715872	0,008316	0,161478	0,008316	2,147484E+9
	0,085000	3,929019	0,008415	-0,143797	0,008415	2,147484E+9
	0,086000	4,533300	0,008514	-0,452847	0,008514	2,147484E+9
	0,087000	3,199802	0,008613	-0,764417	0,008613	2,147484E+9
	0,088000	0,550655	0,008712	-1,077004	0,008712	2,147484E+9
	0,089000	-2,470750	0,008811	-1,388891	0,008811	2,147484E+9
	0,090000	-4,706845	0,008910	-1,698188	0,008910	2,147484E+9
	0,091000	-5,214237	0,009009	-2,002903	0,009009	-2,147484E+9
	0,092000	-3,898587	0,009108	-2,301006	0,009108	-2,147484E+9
	0,093000	-1,190796	0,009207	-2,590505	0,009207	-2,147484E+9
	0,094000	1,810211	0,009306	-2,869522	0,009306	-2,147484E+9
	0,095000	3,980013	0,009405	-3,136350	0,009405	-2,147484E+9
	0,096000	4,515452	0,009504	-3,389512	0,009504	-2,147484E+9
	0,097000	3,128410	0,009603	-3,627791	0,009603	-2,147484E+9
	0,098000	0,453766	0,009702	-3,850252	0,009702	-2,147484E+9
	0,099000	-2,565089	0,009801	-4,056237	0,009801	-2,147484E+9
			0,009900	-4,245347	0,009900	-2,147484E+9
			0,009999	-4,417407	0,009999	-2,147484E+9
			0,010098	-4,572416	0,010098	2,147484E+9
			0,010197	-4,710498	0,010197	2,147484E+9
			0,010296	-4,831836	0,010296	2,147484E+9
			0,010395	-4,936623	0,010395	2,147484E+9
			0,010494	-5,025008	0,010494	2,147484E+9
			0,010593	-5,097060	0,010593	2,147484E+9
			0,010692	-5,152740	0,010692	2,147484E+9
			0,010791	-5,191890	0,010791	2,147484E+9
			0,010890	-5,214237	0,010890	2,147484E+9
			0,010989	-5,219410	0,010989	2,147484E+9
			0,011088	-5,206973	0,011088	-2,147484E+9
			0,011187	-5,176458	0,011187	-2,147484E+9
			0,011286	-5,127414	0,011286	-2,147484E+9
			0,011385	-5,059451	0,011385	-2,147484E+9
			0,011484	-4,972284	0,011484	-2,147484E+9
			0,011583	-4,865771	0,011583	-2,147484E+9
			0,011682	-4,739947	0,011682	-2,147484E+9
			0,011781	-4,595038	0,011781	-2,147484E+9
			0,011880	-4,431476	0,011880	-2,147484E+9
			0,011979	-4,249896	0,011979	-1,618368E+9
			0,012078	-4,051121	0,012078	2,147484E+9
			0,012177	-3,836147	0,012177	2,147484E+9
			0,012276	-3,606114	0,012276	2,147484E+9
			0,012375	-3,362272	0,012375	2,147484E+9
			0,012474	-3,105955	0,012474	2,147484E+9
			0,012573	-2,838545	0,012573	2,147484E+9
			0,012672	-2,561445	0,012672	2,147484E+9
			0,012771	-2,276056	0,012771	2,147484E+9
			0,012870	-1,983756	0,012870	1,825967E+9
			0,012969	-1,685888	0,012969	3,727518E+8
			0,013068	-1,383754	0,013068	-6,782165E+8
			0,013167	-1,078606	0,013167	-1,338332E+9
			0,013266	-0,771654	0,013266	-1,656584E+9
			0,013365	-0,464060	0,013365	-1,702891E+9
			0,013464	-0,156952	0,013464	-1,554419E+9
			0,013563	0,148582	0,013563	-1,285354E+9
			0,013662	0,451483	0,013662	-9,601049E+8
			0,013761	0,750722	0,013761	-6,295966E+8
			0,013860	1,045298	0,013860	-3,300620E+8
			0,013959	1,334240	0,013959	-8,371192E+7
			0,014058	1,616602	0,014058	9,936171E+7
			0,014157	1,891469	0,014157	2,186152E+8
			0,014256	2,157953	0,014256	2,802757E+8
			0,014355	2,415194	0,014355	2,947000E+8
			0,014454	2,662351	0,014454	2,740967E+8
			0,014553	2,898604	0,014553	2,307327E+8
			0,014652	3,123139	0,014652	1,756614E+8
			0,014751	3,335147	0,014751	1,179471E+8
			0,014850	3,533814	0,014850	6,431689E+7
			0,014949	3,718312	0,014949	1,915039E+7
			0,015048	3,887798	0,015048	-1,529078E+7
			0,015147	4,041416	0,015147	-3,848588E+7
			0,015246	4,178297	0,015246	-5,121111E+7
			0,015345	4,297575	0,015345	-5,509233E+7
			0,015444	4,398400	0,015444	-5,219988E+7
			0,015543	4,479961	0,015543	-4,471401E+7
			0,015642	4,541516	0,015642	-3,467390E+7
			0,015741	4,582416	0,015741	-2,381151E+7
			0,015840	4,602142	0,015840	-1,346285E+7
			0,015939	4,600331	0,015939	-4543540,000000
			0,016038	4,576804	0,016038	2426930,000000
			0,016137	4,531585	0,016137	7268164,000000
			0,016236	4,464916	0,016236	1,006390E+7
			0,016335	4,377256	0,016335	1,108144E+7
			0,016434	4,269275	0,016434	1,069493E+7
			0,016533	4,141838	0,016533	9319024,000000
			0,016632	3,995971	0,016632	7356599,000000
			0,016731	3,832829	0,016731	5161761,000000
			0,016830	3,653650	0,016830	3017675,000000
			0,016929	3,459711	0,016929	1127361,000000
			0,017028	3,252282	0,017028	-385165,000000
			0,017127	3,032581	0,017127	-1466265,000000
			0,017226	2,801743	0,017226	-2119431,000000
			0,017325	2,560789	0,017325	-2389923,000000
			0,017424	2,310614	0,017424	-2349366,000000
			0,017523	2,051986	0,017523	-2081800,000000
			0,017622	1,785552	0,017622	-1672167,000000
			0,017721	1,511868	0,017721	-1197702,000000
			0,017820	1,231427	0,017820	-722312,000000
			0,017919	0,944702	0,017919	-293715,000000
			0,018018	0,652193	0,018018	57117,000000
			0,018117	0,354467	0,018117	314736,000000
			0,018216	0,052207	0,018216	476793,000000
			0,018315	-0,253757	0,018315	550966,000000
			0,018414	-0,562420	0,018414	551683,000000
			0,018513	-0,872595	0,018513	497023,000000
			0,018612	-1,182905	0,018612	406036,000000
			0,018711	-1,491810	0,018711	296644,000000
			0,018810	-1,797627	0,018810	184174,000000
			0,018909	-2,098574	0,018909	80501,000000
			0,019008	-2,392822	0,019008	-6256,000000
			0,019107	-2,678546	0,019107	-71608,000000
			0,019206	-2,953983	0,019206	-114249,000000
			0,019305	-3,217487	0,019305	-135408,000000
			0,019404	-3,467576	0,019404	-138119,000000
			0,019503	-3,702969	0,019503	-126493,000000
			0,019602	-3,922613	0,019602	-105061,000000
			0,019701	-4,125695	0,019701	-78238,000000
			0,019800	-4,311640	0,019800	-49919,000000
			0,019899	-4,480094	0,019899	-23233,000000
			0,019998	-4,630899	0,019998	-415,000000
			0,020097	-4,764054	0,020097	17197,000000
			0,020196	-4,879668	0,020196	29078,000000
			0,020295	-4,977920	0,020295	35384,000000
			0,020394	-5,059007	0,020394	36774,000000
			0,020493	-5,123103	0,020493	34230,000000
			0,020592	-5,170330	0,020592	28895,000000
			0,020691	-5,200726	0,020691	21917,000000
			0,020790	-5,214237	0,020790	14346,000000
			0,020889	-5,210715	0,020889	7052,000000
			0,020988	-5,189928	0,020988	682,000000
			0,021087	-5,151586	0,021087	-4350,000000
			0,021186	-5,095364	0,021186	-7852,000000
			0,021285	-5,020948	0,021285	-9820,000000
			0,021384	-4,928066	0,021384	-10400,000000
			0,021483	-4,816536	0,021483	-9840,000000
			0,021582	-4,686300	0,021582	-8440,000000
			0,021681	-4,537456	0,021681	-6519,000000
			0,021780	-4,370283	0,021780	-4374,000000
			0,021879	-4,185258	0,021879	-2261,000000
			0,021978	-3,983058	0,021978	-377,000000
			0,022077	-3,764560	0,022077	1145,000000
			0,022176	-3,530823	0,022176	2235,000000
			0,022275	-3,283070	0,022275	2879,000000
			0,022374	-3,022657	0,022374	3109,000000
			0,022473	-2,751040	0,022473	2990,000000
			0,022572	-2,469742	0,022572	2605,000000
			0,022671	-2,180317	0,022671	2046,000000
			0,022770	-1,884317	0,022770	1404,000000
			0,022869	-1,583263	0,022869	757,000000
			0,022968	-1,278621	0,022968	168,000000
			0,023067	-0,971780	0,023067	-318,000000
			0,023166	-0,664043	0,023166	-676,000000
			0,023265	-0,356621	0,023265	-896,000000
			0,023364	-0,050630	0,023364	-987,000000
			0,023463	0,252905	0,023463	-964,000000
			0,023562	0,553037	0,023562	-853,000000
			0,023661	0,848889	0,023661	-681,000000
			0,023760	1,139637	0,023760	-478,000000
			0,023859	1,424499	0,023859	-268,000000
			0,023958	1,702712	0,023958	-73,000000
			0,024057	1,973524	0,024057	91,000000
			0,024156	2,236176	0,024156	216,000000
			0,024255	2,489890	0,024255	295,000000
			0,024354	2,733864	0,024354	332,000000
			0,024453	2,967257	0,024453	330,000000
			0,024552	3,189195	0,024552	297,000000
			0,024651	3,398762	0,024651	242,000000
			0,024750	3,595007	0,024750	175,000000
			0,024849	3,776952	0,024849	103,000000
			0,024948	3,943600	0,024948	36,000000
			0,025047	4,093952	0,025047	-23,000000
			0,025146	4,227021	0,025146	-68,000000
			0,025245	4,341859	0,025245	-97,000000
			0,025344	4,437575	0,025344	-112,000000
			0,025443	4,513362	0,025443	-113,000000
			0,025542	4,568524	0,025542	-103,000000
			0,025641	4,602501	0,025641	-84,000000
			0,025740	4,614890	0,025740	-60,000000
			0,025839	4,605468	0,025839	-34,000000
			0,025938	4,574202	0,025938	-10,000000
			0,026037	4,521263	0,026037	12,000000
			0,026136	4,447023	0,026136	30,000000
			0,026235	4,352052	0,026235	41,000000
			0,026334	4,237102	0,026334	48,000000
			0,026433	4,103086	0,026433	49,000000
			0,026532	3,951049	0,026532	45,000000
			0,026631	3,782137	0,026631	39,000000
			0,026730	3,597557	0,026730	30,000000
			0,026829	3,398539	0,026829	20,000000
			0,026928	3,186304	0,026928	10,000000
			0,027027	2,962021	0,027027	1,000000
			0,027126	2,726788	0,027126	-6,000000
			0,027225	2,481610	0,027225	-11,000000
			0,027324	2,227383	0,027324	-14,000000
			0,027423	1,964902	0,027423	-15,000000
			0,027522	1,694863	0,027522	-14,000000
			0,027621	1,417885	0,027621	-12,000000
			0,027720	1,134538	0,027720	-9,000000
			0,027819	0,845375	0,027819	-5,000000
			0,027918	0,550970	0,027918	-2,000000
			0,028017	0,251952	0,028017	2,000000
			0,028116	-0,050952	0,028116	4,000000
			0,028215	-0,356897	0,028215	6,000000
			0,028314	-0,664888	0,028314	7,000000
			0,028413	-0,973774	0,028413	7,000000
			0,028512	-1,282243	0,028512	7,000000
			0,028611	-1,588837	0,028611	5,000000
			0,028710	-1,891966	0,028710	4,000000
			0,028809	-2,189951	0,028809	2,000000
			0,028908	-2,481054	0,028908	0,000000
			0,029007	-2,763534	0,029007	-2,000000
			0,029106	-3,035688	0,029106	-4,000000
			0,029205	-3,295905	0,029205	-5,000000
			0,029304	-3,542708	0,029304	-6,000000
			0,029403	-3,774795	0,029403	-6,000000
			0,029502	-3,991063	0,029502	-6,000000
			0,029601	-4,190628	0,029601	-6,000000
			0,029700	-4,372833	0,029700	-6,000000
			0,029799	-4,537235	0,029799	-5,000000
			0,029898	-4,683591	0,029898	-5,000000
			0,029997	-4,811830	0,029997	-4,000000
			0,030096	-4,922014	0,030096	-4,000000
			0,030195	-5,014298	0,030195	-4,000000
			0,030294	-5,088893	0,030294	-3,000000
			0,030393	-5,146018	0,030393	-3,000000
			0,030492	-5,185868	0,030492	-4,000000
			0,030591	-5,208584	0,030591	-4,000000
			0,030690	-5,214237	0,030690	-4,000000
			0,030789	-5,202811	0,030789	-4,000000
			0,030888	-5,174215	0,030888	-5,000000
			0,030987	-5,128285	0,030987	-5,000000
			0,031086	-5,064815	0,031086	-5,000000
			0,031185	-4,983582	0,031185	-6,000000
			0,031284	-4,884380	0,031284	-6,000000
			0,031383	-4,767062	0,031383	-6,000000
			0,031482	-4,631574	0,031482	-6,000000
			0,031581	-4,477989	0,031581	-6,000000
			0,031680	-4,306540	0,031680	-5,000000
			0,031779	-4,117639	0,031779	-5,000000
			0,031878	-3,911889	0,031878	-5,000000
			0,031977	-3,690090	0,031977	-4,000000
			0,032076	-3,453234	0,032076	-4,000000
			0,032175	-3,202485	0,032175	-4,000000
			0,032274	-2,939159	0,032274	-3,000000
			0,032373	-2,664696	0,032373	-3,000000
			0,032472	-2,380623	0,032472	-3,000000
			0,032571	-2,088518	0,032571	-3,000000
			0,032670	-1,789978	0,032670	-2,000000
			0,032769	-1,486581	0,032769	-2,000000
			0,032868	-1,179858	0,032868	-2,000000
			0,032967	-0,871267	0,032967	-2,000000
			0,033066	-0,562178	0,033066	-2,000000
			0,033165	-0,253856	0,033165	-1,000000
			0,033264	0,052538	0,033264	-1,000000
			0,033363	0,355948	0,033363	-1,000000
			0,033462	0,655414	0,033462	-1,000000
			0,033561	0,950060	0,033561	0,000000
			0,033660	1,239076	0,033660	0,000000
			0,033759	1,521702	0,033759	0,000000
			0,033858	1,797206	0,033858	1,000000
			0,033957	2,064866	0,033957	1,000000
			0,034056	2,323953	0,034056	1,000000
			0,034155	2,573714	0,034155	2,000000
			0,034254	2,813363	0,034254	2,000000
			0,034353	3,042074	0,034353	2,000000
			0,034452	3,258974	0,034452	3,000000
			0,034551	3,463150	0,034551	3,000000
			0,034650	3,653650	0,034650	3,000000
			0,034749	3,829498	0,034749	3,000000
			0,034848	3,989707	0,034848	3,000000
			0,034947	4,133294	0,034947	4,000000
			0,035046	4,259305	0,035046	4,000000
			0,035145	4,366837	0,035145	4,000000
			0,035244	4,455059	0,035244	4,000000
			0,035343	4,523239	0,035343	4,000000
			0,035442	4,570765	0,035442	4,000000
			0,035541	4,597169	0,035541	4,000000
			0,035640	4,602142	0,035640	4,000000
			0,035739	4,585548	0,035739	4,000000
			0,035838	4,547436	0,035838	5,000000
			0,035937	4,488041	0,035937	5,000000
			0,036036	4,407783	0,036036	5,000000
			0,036135	4,307256	0,036135	5,000000
			0,036234	4,187213	0,036234	5,000000
			0,036333	4,048547	0,036333	5,000000
			0,036432	3,892265	0,036432	4,000000
			0,036531	3,719457	0,036531	4,000000
			0,036630	3,531264	0,036630	4,000000
			0,036729	3,328849	0,036729	4,000000
			0,036828	3,113362	0,036828	4,000000
			0,036927	2,885919	0,036927	4,000000
			0,037026	2,647572	0,037026	3,000000
			0,037125	2,399301	0,037125	3,000000
			0,037224	2,141999	0,037224	3,000000
			0,037323	1,876476	0,037323	3,000000
			0,037422	1,603467	0,037422	3,000000
			0,037521	1,323646	0,037521	2,000000
			0,037620	1,037649	0,037620	2,000000
			0,037719	0,746106	0,037719	2,000000
			0,037818	0,449665	0,037818	2,000000
			0,037917	0,149029	0,037917	1,000000
			0,038016	-0,155015	0,038016	1,000000
			0,038115	-0,461571	0,038115	1,000000
			0,038214	-0,769618	0,038214	0,000000
			0,038313	-1,077992	0,038313	0,000000
			0,038412	-1,385390	0,038412	0,000000
			0,038511	-1,690377	0,038511	0,000000
			0,038610	-1,991405	0,038610	-1,000000
			0,038709	-2,286841	0,038709	-1,000000
			0,038808	-2,575005	0,038808	-1,000000
			0,038907	-2,854206	0,038907	-2,000000
			0,039006	-3,122793	0,039006	-2,000000
			0,039105	-3,379196	0,039105	-2,000000
			0,039204	-3,621970	0,039204	-3,000000
			0,039303	-3,849831	0,039303	-3,000000
			0,039402	-4,061683	0,039402	-3,000000
			0,039501	-4,256638	0,039501	-3,000000
			0,039600	-4,434026	0,039600	-4,000000
			0,039699	-4,593388	0,039699	-4,000000
			0,039798	-4,734463	0,039798	-4,000000
			0,039897	-4,857163	0,039897	-4,000000
			0,039996	-4,961544	0,039996	-4,000000
			0,040095	-5,047762	0,040095	-5,000000
			0,040194	-5,116037	0,040194	-5,000000
			0,040293	-5,166616	0,040293	-5,000000
			0,040392	-5,199727	0,040392	-5,000000
			0,040491	-5,215560	0,040491	-5,000000
			0,040590	-5,214237	0,040590	-5,000000
			0,040689	-5,195802	0,040689	-5,000000
			0,040788	-5,160220	0,040788	-5,000000
			0,040887	-5,107387	0,040887	-5,000000
			0,040986	-5,037147	0,040986	-5,000000
			0,041085	-4,949318	0,041085	-5,000000
			0,041184	-4,843731	0,041184	-5,000000
			0,041283	-4,720260	0,041283	-5,000000
			0,041382	-4,578868	0,041382	-5,000000
			0,041481	-4,419636	0,041481	-5,000000
			0,041580	-4,242798	0,041580	-5,000000
			0,041679	-4,048765	0,041679	-5,000000
			0,041778	-3,838141	0,041778	-5,000000
			0,041877	-3,611730	0,041877	-4,000000
			0,041976	-3,370529	0,041976	-4,000000
			0,042075	-3,115717	0,042075	-4,000000
			0,042174	-2,848630	0,042174	-4,000000
			0,042273	-2,570734	0,042273	-4,000000
			0,042372	-2,283585	0,042372	-3,000000
			0,042471	-1,988794	0,042471	-3,000000
			0,042570	-1,687990	0,042570	-3,000000
			0,042669	-1,382777	0,042669	-3,000000
			0,042768	-1,074709	0,042768	-2,000000
			0,042867	-0,765256	0,042867	-2,000000
			0,042966	-0,455790	0,042966	-2,000000
			0,043065	-0,147571	0,043065	-1,000000
			0,043164	0,158260	0,043164	-1,000000
			0,043263	0,460672	0,043263	-1,000000
			0,043362	0,758736	0,043362	-1,000000
			0,043461	1,051609	0,043461	0,000000
			0,043560	1,338515	0,043560	0,000000
			0,043659	1,618719	0,043659	0,000000
			0,043758	1,891510	0,043758	1,000000
			0,043857	2,156175	0,043857	1,000000
			0,043956	2,411982	0,043956	1,000000
			0,044055	2,658166	0,044055	1,000000
			0,044154	2,893919	0,044154	2,000000
			0,044253	3,118386	0,044253	2,000000
			0,044352	3,330662	0,044352	2,000000
			0,044451	3,529805	0,044451	3,000000
			0,044550	3,714843	0,044550	3,000000
			0,044649	3,884789	0,044649	3,000000
			0,044748	4,038663	0,044748	3,000000
			0,044847	4,175508	0,044847	3,000000
			0,044946	4,294419	0,044946	4,000000
			0,045045	4,394559	0,045045	4,000000
			0,045144	4,475183	0,045144	4,000000
			0,045243	4,535661	0,045243	4,000000
			0,045342	4,575492	0,045342	4,000000
			0,045441	4,594320	0,045441	4,000000
			0,045540	4,591943	0,045540	4,000000
			0,045639	4,568324	0,045639	4,000000
			0,045738	4,523591	0,045738	5,000000
			0,045837	4,458033	0,045837	5,000000
			0,045936	4,372100	0,045936	5,000000
			0,046035	4,266384	0,046035	5,000000
			0,046134	4,141614	0,046134	5,000000
			0,046233	3,998630	0,046233	5,000000
			0,046332	3,838366	0,046332	4,000000
			0,046431	3,661829	0,046431	4,000000
			0,046530	3,470071	0,046530	4,000000
			0,046629	3,264169	0,046629	4,000000
			0,046728	3,045201	0,046728	4,000000
			0,046827	2,814225	0,046827	4,000000
			0,046926	2,572266	0,046926	4,000000
			0,047025	2,320300	0,047025	3,000000
			0,047124	2,059247	0,047124	3,000000
			0,047223	1,789972	0,047223	3,000000
			0,047322	1,513289	0,047322	3,000000
			0,047421	1,229970	0,047421	3,000000
			0,047520	0,940760	0,047520	2,000000
			0,047619	0,646400	0,047619	2,000000
			0,047718	0,347643	0,047718	2,000000
			0,047817	0,045285	0,047817	1,000000
			0,047916	-0,259819	0,047916	1,000000
			0,048015	-0,566731	0,048015	1,000000
			0,048114	-0,874414	0,048114	1,000000
			0,048213	-1,181722	0,048213	0,000000
			0,048312	-1,487398	0,048312	0,000000
			0,048411	-1,790075	0,048411	0,000000
			0,048510	-2,088294	0,048510	-1,000000
			0,048609	-2,380519	0,048609	-1,000000
			0,048708	-2,665169	0,048708	-1,000000
			0,048807	-2,940650	0,048807	-2,000000
			0,048906	-3,205391	0,048906	-2,000000
			0,049005	-3,457884	0,049005	-2,000000
			0,049104	-3,696723	0,049104	-2,000000
			0,049203	-3,920634	0,049203	-3,000000
			0,049302	-4,128511	0,049302	-3,000000
			0,049401	-4,319430	0,049401	-3,000000
			0,049500	-4,492669	0,049500	-3,000000
			0,049599	-4,647704	0,049599	-4,000000
			0,049698	-4,784206	0,049698	-4,000000
			0,049797	-4,902023	0,049797	-4,000000
			0,049896	-5,001155	0,049896	-4,000000
			0,049995	-5,081721	0,049995	-4,000000
			0,050094	-5,143929	0,050094	-5,000000
			0,050193	-5,188030	0,050193	-5,000000
			0,050292	-5,214291	0,050292	-5,000000
			0,050391	-5,222960	0,050391	-5,000000
			0,050490	-5,214237	0,050490	-5,000000
			0,050589	-5,188262	0,050589	-5,000000
			0,050688	-5,145106	0,050688	-5,000000
			0,050787	-5,084770	0,050787	-5,000000
			0,050886	-5,007200	0,050886	-5,000000
			0,050985	-4,912310	0,050985	-5,000000
			0,051084	-4,800006	0,051084	-5,000000
			0,051183	-4,670222	0,051183	-5,000000
			0,051282	-4,522956	0,051282	-5,000000
			0,051381	-4,358306	0,051381	-5,000000
			0,051480	-4,176505	0,051480	-5,000000
			0,051579	-3,977946	0,051579	-5,000000
			0,051678	-3,763203	0,051678	-5,000000
			0,051777	-3,533043	0,051777	-5,000000
			0,051876	-3,288426	0,051876	-4,000000
			0,051975	-3,030497	0,051975	-4,000000
			0,052074	-2,760565	0,052074	-4,000000
			0,052173	-2,480078	0,052173	-4,000000
			0,052272	-2,190589	0,052272	-4,000000
			0,052371	-1,893715	0,052371	-3,000000
			0,052470	-1,591101	0,052470	-3,000000
			0,052569	-1,284378	0,052569	-3,000000
			0,052668	-0,975129	0,052668	-3,000000
			0,052767	-0,664858	0,052767	-2,000000
			0,052866	-0,354965	0,052866	-2,000000
			0,052965	-0,046736	0,052965	-2,000000
			0,053064	0,258671	0,053064	-1,000000
			0,053163	0,560216	0,053163	-1,000000
			0,053262	0,856972	0,053262	-1,000000
			0,053361	1,148105	0,053361	0,000000
			0,053460	1,432854	0,053460	0,000000
			0,053559	1,710507	0,053559	0,000000
			0,053658	1,980374	0,053658	0,000000
			0,053757	2,241763	0,053757	1,000000
			0,053856	2,493960	0,053856	1,000000
			0,053955	2,736211	0,053955	1,000000
			0,054054	2,967714	0,054054	2,000000
			0,054153	3,187611	0,054153	2,000000
			0,054252	3,394995	0,054252	2,000000
			0,054351	3,588913	0,054351	2,000000
			0,054450	3,768387	0,054450	3,000000
			0,054549	3,932429	0,054549	3,000000
			0,054648	4,080063	0,054648	3,000000
			0,054747	4,210353	0,054747	3,000000
			0,054846	4,322425	0,054846	3,000000
			0,054945	4,415489	0,054945	4,000000
			0,055044	4,488868	0,055044	4,000000
			0,055143	4,542008	0,055143	4,000000
			0,055242	4,574498	0,055242	4,000000
			0,055341	4,586078	0,055341	4,000000
			0,055440	4,576645	0,055440	4,000000
			0,055539	4,546253	0,055539	4,000000
			0,055638	4,495112	0,055638	5,000000
			0,055737	4,423576	0,055737	5,000000
			0,055836	4,332137	0,055836	5,000000
			0,055935	4,221407	0,055935	5,000000
			0,056034	4,092107	0,056034	5,000000
			0,056133	3,945044	0,056133	5,000000
			0,056232	3,781099	0,056232	4,000000
			0,056331	3,601204	0,056331	4,000000
			0,056430	3,406328	0,056430	4,000000
			0,056529	3,197461	0,056529	4,000000
			0,056628	2,975594	0,056628	4,000000
			0,056727	2,741716	0,056727	4,000000
			0,056826	2,496793	0,056826	4,000000
			0,056925	2,241773	0,056925	4,000000
			0,057024	1,977571	0,057024	3,000000
			0,057123	1,705077	0,057123	3,000000
			0,057222	1,425157	0,057222	3,000000
			0,057321	1,138658	0,057321	3,000000
			0,057420	0,846421	0,057420	2,000000
			0,057519	0,549292	0,057519	2,000000
			0,057618	0,248135	0,057618	2,000000
			0,057717	-0,056151	0,057717	2,000000
			0,057816	-0,362617	0,057816	1,000000
			0,057915	-0,670252	0,057915	1,000000
			0,058014	-0,977972	0,058014	1,000000
			0,058113	-1,284613	0,058113	1,000000
			0,058212	-1,588924	0,058212	0,000000
			0,058311	-1,889581	0,058311	0,000000
			0,058410	-2,185183	0,058410	0,000000
			0,058509	-2,474277	0,058509	-1,000000
			0,058608	-2,755376	0,058608	-1,000000
			0,058707	-3,026981	0,058707	-1,000000
			0,058806	-3,287617	0,058806	-2,000000
			0,058905	-3,535860	0,058905	-2,000000
			0,059004	-3,770368	0,059004	-2,000000
			0,059103	-3,989915	0,059103	-2,000000
			0,059202	-4,193416	0,059202	-3,000000
			0,059301	-4,379948	0,059301	-3,000000
			0,059400	-4,548763	0,059400	-3,000000
			0,059499	-4,699298	0,059499	-4,000000
			0,059598	-4,831171	0,059598	-4,000000
			0,059697	-4,944172	0,059697	-4,000000
			0,059796	-5,038243	0,059796	-4,000000
			0,059895	-5,113455	0,059895	-4,000000
			0,059994	-5,169978	0,059994	-5,000000
			0,060093	-5,208048	0,060093	-5,000000
			0,060192	-5,227936	0,060192	-5,000000
			0,060291	-5,229916	0,060291	-5,000000
			0,060390	-5,214237	0,060390	-5,000000
			0,060489	-5,181107	0,060489	-5,000000
			0,060588	-5,130678	0,060588	-5,000000
			0,060687	-5,063045	0,060687	-5,000000
			0,060786	-4,978251	0,060786	-5,000000
			0,060885	-4,876301	0,060885	-5,000000
			0,060984	-4,757190	0,060984	-5,000000
			0,061083	-4,620924	0,061083	-5,000000
			0,061182	-4,467560	0,061182	-5,000000
			0,061281	-4,297239	0,061281	-5,000000
			0,061380	-4,110213	0,061380	-5,000000
			0,061479	-3,906882	0,061479	-5,000000
			0,061578	-3,687812	0,061578	-5,000000
			0,061677	-3,453750	0,061677	-5,000000
			0,061776	-3,205629	0,061776	-4,000000
			0,061875	-2,944564	0,061875	-4,000000
			0,061974	-2,671837	0,061974	-4,000000
			0,062073	-2,388870	0,062073	-4,000000
			0,062172	-2,097199	0,062172	-4,000000
			0,062271	-1,798431	0,062271	-4,000000
			0,062370	-1,494212	0,062370	-3,000000
			0,062469	-1,186178	0,062469	-3,000000
			0,062568	-0,875927	0,062568	-3,000000
			0,062667	-0,564979	0,062667	-3,000000
			0,062766	-0,254752	0,062766	-2,000000
			0,062865	0,053450	0,062865	-2,000000
			0,062964	0,358456	0,062964	-2,000000
			0,063063	0,659216	0,063063	-1,000000
			0,063162	0,954801	0,063162	-1,000000
			0,063261	1,244377	0,063261	-1,000000
			0,063360	1,527193	0,063360	0,000000
			0,063459	1,802546	0,063459	0,000000
			0,063558	2,069758	0,063558	0,000000
			0,063657	2,328150	0,063657	1,000000
			0,063756	2,577016	0,063756	1,000000
			0,063855	2,815609	0,063855	1,000000
			0,063954	3,043127	0,063954	1,000000
			0,064053	3,258709	0,064053	2,000000
			0,064152	3,461439	0,064152	2,000000
			0,064251	3,650359	0,064251	2,000000
			0,064350	3,824481	0,064350	2,000000
			0,064449	3,982812	0,064449	3,000000
			0,064548	4,124380	0,064548	3,000000
			0,064647	4,248261	0,064647	3,000000
			0,064746	4,353606	0,064746	3,000000
			0,064845	4,439667	0,064845	3,000000
			0,064944	4,505816	0,064944	4,000000
			0,065043	4,551569	0,065043	4,000000
			0,065142	4,576589	0,065142	4,000000
			0,065241	4,580703	0,065241	4,000000
			0,065340	4,563896	0,065340	4,000000
			0,065439	4,526308	0,065439	5,000000
			0,065538	4,468228	0,065538	5,000000
			0,065637	4,390077	0,065637	5,000000
			0,065736	4,292399	0,065736	5,000000
			0,065835	4,175838	0,065835	5,000000
			0,065934	4,041126	0,065934	5,000000
			0,066033	3,889063	0,066033	5,000000
			0,066132	3,720503	0,066132	4,000000
			0,066231	3,536338	0,066231	4,000000
			0,066330	3,337486	0,066330	4,000000
			0,066429	3,124883	0,066429	4,000000
			0,066528	2,899469	0,066528	4,000000
			0,066627	2,662188	0,066627	4,000000
			0,066726	2,413978	0,066726	4,000000
			0,066825	2,155772	0,066825	3,000000
			0,066924	1,888495	0,066924	3,000000
			0,067023	1,613064	0,067023	3,000000
			0,067122	1,330394	0,067122	3,000000
			0,067221	1,041395	0,067221	3,000000
			0,067320	0,746982	0,067320	3,000000
			0,067419	0,448079	0,067419	3,000000
			0,067518	0,145628	0,067518	3,000000
			0,067617	-0,159407	0,067617	3,000000
			0,067716	-0,466025	0,067716	2,000000
			0,067815	-0,773185	0,067815	2,000000
			0,067914	-1,079796	0,067914	1,000000
			0,068013	-1,384712	0,068013	1,000000
			0,068112	-1,686730	0,068112	0,000000
			0,068211	-1,984588	0,068211	-1,000000
			0,068310	-2,276972	0,068310	-1,000000
			0,068409	-2,562522	0,068409	-2,000000
			0,068508	-2,839848	0,068508	-2,000000
			0,068607	-3,107544	0,068607	-3,000000
			0,068706	-3,364217	0,068706	-3,000000
			0,068805	-3,608506	0,068805	-3,000000
			0,068904	-3,839110	0,068904	-3,000000
			0,069003	-4,054818	0,069003	-2,000000
			0,069102	-4,254533	0,069102	-2,000000
			0,069201	-4,437297	0,069201	-1,000000
			0,069300	-4,602307	0,069300	-1,000000
			0,069399	-4,748930	0,069399	-1,000000
			0,069498	-4,876707	0,069498	0,000000
			0,069597	-4,985349	0,069597	0,000000
			0,069696	-5,074732	0,069696	-1,000000
			0,069795	-5,144871	0,069795	-2,000000
			0,069894	-5,195903	0,069894	-3,000000
			0,069993	-5,228056	0,069993	-4,000000
			0,070092	-5,241617	0,070092	-6,000000
			0,070191	-5,236905	0,070191	-8,000000
			0,070290	-5,214237	0,070290	-10,000000
			0,070389	-5,173904	0,070389	-11,000000
			0,070488	-5,116159	0,070488	-12,000000
			0,070587	-5,041198	0,070587	-13,000000
			0,070686	-4,949170	0,070686	-12,000000
			0,070785	-4,840175	0,070785	-11,000000
			0,070884	-4,714288	0,070884	-9,000000
			0,070983	-4,571583	0,070983	-6,000000
			0,071082	-4,412161	0,071082	-2,000000
			0,071181	-4,236187	0,071181	2,000000
			0,071280	-4,043920	0,071280	6,000000
			0,071379	-3,835753	0,071379	10,000000
			0,071478	-3,612230	0,071478	12,000000
			0,071577	-3,374074	0,071577	13,000000
			0,071676	-3,122192	0,071676	13,000000
			0,071775	-2,857680	0,071775	10,000000
			0,071874	-2,581805	0,071874	5,000000
			0,071973	-2,295992	0,071973	-2,000000
			0,072072	-2,001787	0,072072	-10,000000
			0,072171	-1,700821	0,072171	-20,000000
			0,072270	-1,394773	0,072270	-30,000000
			0,072369	-1,085319	0,072369	-39,000000
			0,072468	-0,774095	0,072468	-45,000000
			0,072567	-0,462656	0,072567	-48,000000
			0,072666	-0,152451	0,072666	-47,000000
			0,072765	0,155206	0,072765	-40,000000
			0,072864	0,459143	0,072864	-28,000000
			0,072963	0,758330	0,072963	-9,000000
			0,073062	1,051873	0,073062	13,000000
			0,073161	1,338988	0,073161	39,000000
			0,073260	1,618983	0,073260	66,000000
			0,073359	1,891219	0,073359	91,000000
			0,073458	2,155083	0,073458	110,000000
			0,073557	2,409951	0,073557	121,000000
			0,073656	2,655162	0,073656	120,000000
			0,073755	2,889995	0,073755	105,000000
			0,073854	3,113653	0,073854	75,000000
			0,073953	3,325263	0,073953	28,000000
			0,074052	3,523874	0,074052	-31,000000
			0,074151	3,708477	0,074151	-101,000000
			0,074250	3,878025	0,074250	-174,000000
			0,074349	4,031462	0,074349	-243,000000
			0,074448	4,167758	0,074448	-300,000000
			0,074547	4,285944	0,074547	-334,000000
			0,074646	4,385144	0,074646	-336,000000
			0,074745	4,464610	0,074745	-298,000000
			0,074844	4,523743	0,074844	-216,000000
			0,074943	4,562117	0,074943	-89,000000
			0,075042	4,579487	0,075042	80,000000
			0,075141	4,575792	0,075141	280,000000
			0,075240	4,551148	0,075240	496,000000
			0,075339	4,505836	0,075339	705,000000
			0,075438	4,440286	0,075438	881,000000
			0,075537	4,355049	0,075537	995,000000
			0,075636	4,250776	0,075636	1018,000000
			0,075735	4,128194	0,075735	925,000000
			0,075834	3,988080	0,075834	698,000000
			0,075933	3,831243	0,075933	330,000000
			0,076032	3,658506	0,076032	-170,000000
			0,076131	3,470697	0,076131	-776,000000
			0,076230	3,268644	0,076230	-1442,000000
			0,076329	3,053170	0,076329	-2103,000000
			0,076428	2,825097	0,076428	-2677,000000
			0,076527	2,585252	0,076527	-3073,000000
			0,076626	2,334471	0,076626	-3197,000000
			0,076725	2,073611	0,076725	-2960,000000
			0,076824	1,803553	0,076824	-2298,000000
			0,076923	1,525208	0,076923	-1178,000000
			0,077022	1,239522	0,077022	387,000000
			0,077121	0,947478	0,077121	2323,000000
			0,077220	0,650093	0,077220	4495,000000
			0,077319	0,348421	0,077319	6699,000000
			0,077418	0,043542	0,077418	8674,000000
			0,077517	-0,263435	0,077517	10112,000000
			0,077616	-0,571379	0,077616	10688,000000
			0,077715	-0,879141	0,077715	10091,000000
			0,077814	-1,185554	0,077814	8067,000000
			0,077913	-1,489436	0,077913	4467,000000
			0,078012	-1,789591	0,078012	-706,000000
			0,078111	-2,084808	0,078111	-7253,000000
			0,078210	-2,373861	0,078210	-14751,000000
			0,078309	-2,655512	0,078309	-22532,000000
			0,078408	-2,928512	0,078408	-29703,000000
			0,078507	-3,191610	0,078507	-35186,000000
			0,078606	-3,443560	0,078606	-37799,000000
			0,078705	-3,683134	0,078705	-36371,000000
			0,078804	-3,909137	0,078804	-29889,000000
			0,078903	-4,120429	0,078903	-17679,000000
			0,079002	-4,315941	0,079002	419,000000
			0,079101	-4,494700	0,079101	23867,000000
			0,079200	-4,655851	0,079200	51287,000000
			0,079299	-4,798669	0,079299	80383,000000
			0,079398	-4,922581	0,079398	107941,000000
			0,079497	-5,027169	0,079497	129958,000000
			0,079596	-5,112178	0,079596	141899,000000
			0,079695	-5,177506	0,079695	139109,000000
			0,079794	-5,223194	0,079794	117367,000000
			0,079893	-5,249409	0,079893	73558,000000
			0,079992	-5,256419	0,079992	6420,000000
			0,080091	-5,244567	0,080091	-82701,000000
			0,080190	-5,214237	0,080190	-189193,000000
			0,080289	-5,165831	0,080289	-304714,000000
			0,080388	-5,099743	0,080388	-417066,000000
			0,080487	-5,016333	0,080487	-510506,000000
			0,080586	-4,915924	0,080586	-566629,000000
			0,080685	-4,798790	0,080685	-565873,000000
			0,080784	-4,665164	0,080784	-489676,000000
			0,080883	-4,515253	0,080883	-323230,000000
			0,080982	-4,349258	0,080982	-58660,000000
			0,081081	-4,167406	0,081081	301614,000000
			0,081180	-3,969979	0,081180	741716,000000
			0,081279	-3,757350	0,081279	1229836,000000
			0,081378	-3,530015	0,081378	1716972,000000
			0,081477	-3,288619	0,081477	2137508,000000
			0,081576	-3,033977	0,081576	2412147,000000
			0,081675	-2,767085	0,081675	2453701,000000
			0,081774	-2,489118	0,081774	2175912,000000
			0,081873	-2,201419	0,081873	1505286,000000
			0,081972	-1,905476	0,081972	395400,000000
			0,082071	-1,602890	0,082071	-1157280,000000
			0,082170	-1,295334	0,082170	-3097646,000000
			0,082269	-0,984509	0,082269	-5298356,000000
			0,082368	-0,672099	0,082368	-7551000,000000
			0,082467	-0,359724	0,082467	-9564929,000000
			0,082566	-0,048908	0,082566	-1,097673E+7
			0,082665	0,258958	0,082665	-1,137301E+7
			0,082764	0,562631	0,082764	-1,032832E+7
			0,082863	0,861025	0,082863	-7458845,000000
			0,082962	1,153209	0,082962	-2490505,000000
			0,083061	1,438386	0,083061	4662396,000000
			0,083160	1,715872	0,083160	1,381451E+7
			0,083259	1,985059	0,083259	2,443255E+7
			0,083358	2,245383	0,083358	3,557691E+7
			0,083457	2,496280	0,083457	4,587677E+7
			0,083556	2,737154	0,083556	5,355526E+7
			0,083655	2,967346	0,083655	5,652067E+7
			0,083754	3,186117	0,083754	5,253683E+7
			0,083853	3,392631	0,083853	3,948067E+7
			0,083952	3,585963	0,083952	1,568543E+7
			0,084051	3,765111	0,084051	-1,964389E+7
			0,084150	3,929019	0,084150	-6,597181E+7
			0,084249	4,076609	0,084249	-1,209773E+8
			0,084348	4,206825	0,084348	-1,801675E+8
			0,084447	4,318672	0,084447	-2,366424E+8
			0,084546	4,411256	0,084546	-2,811063E+8
			0,084645	4,483829	0,084645	-3,022249E+8
			0,084744	4,535811	0,084744	-2,874212E+8
			0,084843	4,566822	0,084843	-2,241801E+8
			0,084942	4,576687	0,084942	-1,018870E+8
			0,085041	4,565436	0,085041	8,583619E+7
			0,085140	4,533300	0,085140	3,384246E+8
			0,085239	4,480682	0,085239	6,455234E+8
			0,085338	4,408137	0,085338	9,843546E+8
			0,085437	4,316332	0,085437	1,317767E+9
			0,085536	4,206015	0,085536	1,593556E+9
			0,085635	4,077980	0,085635	1,745699E+9
			0,085734	3,933038	0,085734	1,698162E+9
			0,085833	3,771989	0,085833	1,371870E+9
			0,085932	3,595610	0,085932	6,951850E+8
			0,086031	3,404643	0,086031	-3,820630E+8
			0,086130	3,199802	0,086130	-1,871506E+9
			0,086229	2,981774	0,086229	-2,147484E+9
			0,086328	2,751241	0,086328	-2,147484E+9
			0,086427	2,508894	0,086427	-2,147484E+9
			0,086526	2,255457	0,086526	-2,147484E+9
			0,086625	1,991704	0,086625	-2,147484E+9
			0,086724	1,718481	0,086724	-2,147484E+9
			0,086823	1,436711	0,086823	-2,147484E+9
			0,086922	1,147407	0,086922	-2,147484E+9
			0,087021	0,851664	0,087021	1,658152E+9
			0,087120	0,550655	0,087120	2,147484E+9
			0,087219	0,245615	0,087219	2,147484E+9
			0,087318	-0,062175	0,087318	2,147484E+9
			0,087417	-0,371412	0,087417	2,147484E+9
			0,087516	-0,680792	0,087516	2,147484E+9
			0,087615	-0,989028	0,087615	2,147484E+9
			0,087714	-1,294864	0,087714	2,147484E+9
			0,087813	-1,597092	0,087813	2,147484E+9
			0,087912	-1,894551	0,087912	2,147484E+9
			0,088011	-2,186128	0,088011	-2,147484E+9
			0,088110	-2,470750	0,088110	-2,147484E+9
			0,088209	-2,747376	0,088209	-2,147484E+9
			0,088308	-3,014981	0,088308	-2,147484E+9
			0,088407	-3,272544	0,088407	-2,147484E+9
			0,088506	-3,519039	0,088506	-2,147484E+9
			0,088605	-3,753423	0,088605	-2,147484E+9
			0,088704	-3,974643	0,088704	-2,147484E+9
			0,088803	-4,181635	0,088803	-2,147484E+9
			0,088902	-4,373343	0,088902	-2,147484E+9
			0,089001	-4,548738	0,089001	2,147484E+9
			0,089100	-4,706845	0,089100	2,147484E+9
			0,089199	-4,846771	0,089199	2,147484E+9
			0,089298	-4,967739	0,089298	2,147484E+9
			0,089397	-5,069116	0,089397	2,147484E+9
			0,089496	-5,150436	0,089496	2,147484E+9
			0,089595	-5,211417	0,089595	2,147484E+9
			0,089694	-5,251969	0,089694	2,147484E+9
			0,089793	-5,272188	0,089793	2,147484E+9
			0,089892	-5,272344	0,089892	2,147484E+9
			0,089991	-5,252851	0,089991	2,147484E+9
			0,090090	-5,214237	0,090090	-2,147484E+9
			0,090189	-5,157103	0,090189	-2,147484E+9
			0,090288	-5,082079	0,090288	-2,147484E+9
			0,090387	-4,989787	0,090387	-2,147484E+9
			0,090486	-4,880800	0,090486	-2,147484E+9
			0,090585	-4,755621	0,090585	-2,147484E+9
			0,090684	-4,614664	0,090684	-2,147484E+9
			0,090783	-4,458254	0,090783	-2,147484E+9
			0,090882	-4,286640	0,090882	-2,147484E+9
			0,090981	-4,100022	0,090981	-2,147484E+9
			0,091080	-3,898587	0,091080	2,147484E+9
			0,091179	-3,682555	0,091179	2,147484E+9
			0,091278	-3,452232	0,091278	2,147484E+9
			0,091377	-3,208056	0,091377	2,147484E+9
			0,091476	-2,950645	0,091476	2,147484E+9
			0,091575	-2,680828	0,091575	2,147484E+9
			0,091674	-2,399671	0,091674	2,147484E+9
			0,091773	-2,108474	0,091773	2,147484E+9
			0,091872	-1,808761	0,091872	2,147484E+9
			0,091971	-1,502249	0,091971	2,147484E+9
			0,092070	-1,190796	0,092070	-2,147484E+9
			0,092169	-0,876345	0,092169	-2,147484E+9
			0,092268	-0,560852	0,092268	-2,147484E+9
			0,092367	-0,246215	0,092367	-2,147484E+9
			0,092466	0,065790	0,092466	-2,147484E+9
			0,092565	0,373573	0,092565	-2,147484E+9
			0,092664	0,675769	0,092664	-2,147484E+9
			0,092763	0,971268	0,092763	-2,147484E+9
			0,092862	1,259216	0,092862	-2,147484E+9
			0,092961	1,539000	0,092961	-2,147484E+9
			0,093060	1,810211	0,093060	2,147484E+9
			0,093159	2,072587	0,093159	2,147484E+9
			0,093258	2,325946	0,093258	2,147484E+9
			0,093357	2,570116	0,093357	2,147484E+9
			0,093456	2,804855	0,093456	2,147484E+9
			0,093555	3,029787	0,093555	2,147484E+9
			0,093654	3,244354	0,093654	2,147484E+9
			0,093753	3,447773	0,093753	2,147484E+9
			0,093852	3,639036	0,093852	2,147484E+9
			0,093951	3,816916	0,093951	2,147484E+9
			0,094050	3,980013	0,094050	-2,147484E+9
			0,094149	4,126810	0,094149	-2,147484E+9
			0,094248	4,255757	0,094248	-2,147484E+9
			0,094347	4,365358	0,094347	-2,147484E+9
			0,094446	4,454266	0,094446	-2,147484E+9
			0,094545	4,521370	0,094545	-2,147484E+9
			0,094644	4,565875	0,094644	-2,147484E+9
			0,094743	4,587358	0,094743	-2,147484E+9
			0,094842	4,585797	0,094842	-2,147484E+9
			0,094941	4,561574	0,094941	-2,147484E+9
			0,095040	4,515452	0,095040	2,147484E+9
			0,095139	4,448512	0,095139	2,147484E+9
			0,095238	4,362080	0,095238	2,147484E+9
			0,095337	4,257624	0,095337	2,147484E+9
			0,095436	4,136648	0,095436	2,147484E+9
			0,095535	4,000586	0,095535	2,147484E+9
			0,095634	3,850698	0,095634	2,147484E+9
			0,095733	3,687996	0,095733	2,147484E+9
			0,095832	3,513184	0,095832	2,147484E+9
			0,095931	3,326636	0,095931	2,147484E+9
			0,096030	3,128410	0,096030	-2,147484E+9
			0,096129	2,918294	0,096129	-2,147484E+9
			0,096228	2,695885	0,096228	-2,147484E+9
			0,096327	2,460691	0,096327	-2,147484E+9
			0,096426	2,212261	0,096426	-2,147484E+9
			0,096525	1,950308	0,096525	-2,147484E+9
			0,096624	1,674840	0,096624	-2,147484E+9
			0,096723	1,386273	0,096723	-2,147484E+9
			0,096822	1,085512	0,096822	-2,147484E+9
			0,096921	0,774008	0,096921	-2,147484E+9
			0,097020	0,453766	0,097020	2,147484E+9
			0,097119	0,127314	0,097119	2,147484E+9
			0,097218	-0,202373	0,097218	2,147484E+9
			0,097317	-0,531993	0,097317	2,147484E+9
			0,097416	-0,858058	0,097416	2,147484E+9
			0,097515	-1,177071	0,097515	2,147484E+9
			0,097614	-1,485702	0,097614	2,147484E+9
			0,097713	-1,780968	0,097713	2,147484E+9
			0,097812	-2,060392	0,097812	2,147484E+9
			0,097911	-2,322135	0,097911	2,147484E+9
			0,098010	-2,565089	0,098010	-2,147484E+9
			0,098109	-2,788920	0,098109	-2,147484E+9
			0,098208	-2,994063	0,098208	-2,147484E+9
			0,098307	-3,181662	0,098307	-2,147484E+9
			0,098406	-3,353464	0,098406	-2,147484E+9
			0,098505	-3,511671	0,098505	-2,147484E+9
			0,098604	-3,658761	0,098604	-2,147484E+9
			0,098703	-3,797292	0,098703	-2,147484E+9
			0,098802	-3,929698	0,098802	-2,147484E+9
			0,098901	-4,058105	0,098901	-2,147484E+9

