LabVIEW Measurement	
Writer_Version	2
Reader_Version	2
Separator	Tab
Decimal_Separator	,
Multi_Headings	Yes
X_Columns	No
Time_Pref	Relative
Operator	Laboratoire
Date	2019/01/25
Time	14:35:11,2788435833531763343
***End_of_Header***	
	
Channels	6						
Samples	25	25	1000	1000	1000	1000	
Date	2019/01/25	2019/01/25	2019/01/25	2019/01/25	2019/01/25	2019/01/25	
Time	14:35:11,4058451652526855469	14:35:11,2788435833531763343	14:35:11,4058451652526855469	14:35:11,4058451652526855469	14:35:11,4058451652526855469	14:35:11,4058451652526855469	
Y_Unit_Label		Volts					
X_Dimension	Time	Time	Time	Time	Time	Time	
X0	0,0000000000000000E+0	0,0000000000000000E+0	0,0000000000000000E+0	0,0000000000000000E+0	0,0000000000000000E+0	0,0000000000000000E+0	
Delta_X	1,000000	0,004000	1,000000	1,000000	1,000000	1,000000	
***End_of_Header***							
X_Value	Untitled	Tension	Untitled 1	Untitled 2	Untitled 3	Untitled 4	Comment
	0,000000	4,530750	0,000000	4,530750	0,000000	5,000000
	0,004000	-3,959780	9,600000E-5	4,529948	9,600000E-5	-27025,000000
	0,008000	0,639895	0,000192	4,510874	0,000192	-49448,000000
	0,012000	1,634281	0,000288	4,473602	0,000288	-67784,000000
	0,016000	-4,612505	0,000384	4,418272	0,000384	-82510,000000
	0,020000	4,561347	0,000480	4,345094	0,000480	-94057,000000
	0,024000	-4,102564	0,000576	4,254344	0,000576	-102815,000000
	0,028000	0,831123	0,000672	4,146365	0,000672	-109140,000000
	0,032000	1,445602	0,000768	4,021567	0,000768	-113352,000000
	0,036000	-4,502868	0,000864	3,880422	0,000864	-115738,000000
	0,040000	4,586844	0,000960	3,723463	0,000960	-116560,000000
	0,044000	-4,232599	0,001056	3,551285	0,001056	-116051,000000
	0,048000	1,022351	0,001152	3,364539	0,001152	-114420,000000
	0,052000	1,256924	0,001248	3,163933	0,001248	-111854,000000
	0,056000	-4,385581	0,001344	2,950225	0,001344	-108519,000000
	0,060000	4,612341	0,001440	2,724226	0,001440	-104564,000000
	0,064000	-4,357535	0,001536	2,486791	0,001536	-100119,000000
	0,068000	1,216129	0,001632	2,238819	0,001632	-95300,000000
	0,072000	1,063146	0,001728	1,981251	0,001728	-90208,000000
	0,076000	-4,260646	0,001824	1,715061	0,001824	-84932,000000
	0,080000	4,594493	0,001920	1,441260	0,001920	-79550,000000
	0,084000	-4,477371	0,002016	1,160885	0,002016	-74127,000000
	0,088000	1,402257	0,002112	0,874998	0,002112	-68720,000000
	0,092000	0,879567	0,002208	0,584685	0,002208	-63379,000000
	0,096000	-4,133160	0,002304	0,291047	0,002304	-58144,000000
			0,002400	-0,004802	0,002400	-53049,000000
			0,002496	-0,301739	0,002496	-48122,000000
			0,002592	-0,598637	0,002592	-43386,000000
			0,002688	-0,894367	0,002688	-38858,000000
			0,002784	-1,187808	0,002784	-34551,000000
			0,002880	-1,477842	0,002880	-30475,000000
			0,002976	-1,763369	0,002976	-26636,000000
			0,003072	-2,043301	0,003072	-23037,000000
			0,003168	-2,316574	0,003168	-19678,000000
			0,003264	-2,582148	0,003264	-16559,000000
			0,003360	-2,839012	0,003360	-13676,000000
			0,003456	-3,086187	0,003456	-11024,000000
			0,003552	-3,322731	0,003552	-8596,000000
			0,003648	-3,547742	0,003648	-6386,000000
			0,003744	-3,760362	0,003744	-4385,000000
			0,003840	-3,959780	0,003840	-2585,000000
			0,003936	-4,145233	0,003936	-976,000000
			0,004032	-4,316013	0,004032	453,000000
			0,004128	-4,471467	0,004128	1710,000000
			0,004224	-4,610999	0,004224	2806,000000
			0,004320	-4,734074	0,004320	3751,000000
			0,004416	-4,840222	0,004416	4555,000000
			0,004512	-4,929032	0,004512	5229,000000
			0,004608	-5,000165	0,004608	5783,000000
			0,004704	-5,053345	0,004704	6225,000000
			0,004800	-5,088366	0,004800	6565,000000
			0,004896	-5,105091	0,004896	6813,000000
			0,004992	-5,103453	0,004992	6977,000000
			0,005088	-5,083456	0,005088	7065,000000
			0,005184	-5,045173	0,005184	7085,000000
			0,005280	-4,988746	0,005280	7045,000000
			0,005376	-4,914390	0,005376	6952,000000
			0,005472	-4,822387	0,005472	6812,000000
			0,005568	-4,713084	0,005568	6632,000000
			0,005664	-4,586900	0,005664	6417,000000
			0,005760	-4,444314	0,005760	6174,000000
			0,005856	-4,285872	0,005856	5907,000000
			0,005952	-4,112179	0,005952	5621,000000
			0,006048	-3,923899	0,006048	5320,000000
			0,006144	-3,721753	0,006144	5008,000000
			0,006240	-3,506517	0,006240	4689,000000
			0,006336	-3,279017	0,006336	4365,000000
			0,006432	-3,040125	0,006432	4041,000000
			0,006528	-2,790760	0,006528	3717,000000
			0,006624	-2,531881	0,006624	3398,000000
			0,006720	-2,264484	0,006720	3084,000000
			0,006816	-1,989600	0,006816	2778,000000
			0,006912	-1,708289	0,006912	2481,000000
			0,007008	-1,421635	0,007008	2194,000000
			0,007104	-1,130747	0,007104	1918,000000
			0,007200	-0,836747	0,007200	1655,000000
			0,007296	-0,540774	0,007296	1405,000000
			0,007392	-0,243974	0,007392	1169,000000
			0,007488	0,052503	0,007488	946,000000
			0,007584	0,347508	0,007584	738,000000
			0,007680	0,639895	0,007680	544,000000
			0,007776	0,928526	0,007776	364,000000
			0,007872	1,212281	0,007872	199,000000
			0,007968	1,490052	0,007968	48,000000
			0,008064	1,760758	0,008064	-89,000000
			0,008160	2,023341	0,008160	-213,000000
			0,008256	2,276776	0,008256	-324,000000
			0,008352	2,520068	0,008352	-422,000000
			0,008448	2,752266	0,008448	-508,000000
			0,008544	2,972458	0,008544	-582,000000
			0,008640	3,179776	0,008640	-646,000000
			0,008736	3,373405	0,008736	-698,000000
			0,008832	3,552578	0,008832	-741,000000
			0,008928	3,716588	0,008928	-775,000000
			0,009024	3,864782	0,009024	-800,000000
			0,009120	3,996569	0,009120	-817,000000
			0,009216	4,111423	0,009216	-826,000000
			0,009312	4,208880	0,009312	-829,000000
			0,009408	4,288546	0,009408	-825,000000
			0,009504	4,350094	0,009504	-816,000000
			0,009600	4,393269	0,009600	-802,000000
			0,009696	4,417885	0,009696	-783,000000
			0,009792	4,423829	0,009792	-760,000000
			0,009888	4,411061	0,009888	-734,000000
			0,009984	4,379614	0,009984	-705,000000
			0,010080	4,329594	0,010080	-673,000000
			0,010176	4,261178	0,010176	-639,000000
			0,010272	4,174616	0,010272	-603,000000
			0,010368	4,070231	0,010368	-566,000000
			0,010464	3,948413	0,010464	-528,000000
			0,010560	3,809623	0,010560	-490,000000
			0,010656	3,654386	0,010656	-451,000000
			0,010752	3,483295	0,010752	-412,000000
			0,010848	3,297005	0,010848	-374,000000
			0,010944	3,096229	0,010944	-336,000000
			0,011040	2,881740	0,011040	-299,000000
			0,011136	2,654366	0,011136	-263,000000
			0,011232	2,414985	0,011232	-227,000000
			0,011328	2,164522	0,011328	-193,000000
			0,011424	1,903950	0,011424	-161,000000
			0,011520	1,634281	0,011520	-130,000000
			0,011616	1,356563	0,011616	-100,000000
			0,011712	1,071879	0,011712	-72,000000
			0,011808	0,781339	0,011808	-46,000000
			0,011904	0,486078	0,011904	-21,000000
			0,012000	0,187251	0,012000	2,000000
			0,012096	-0,113971	0,012096	23,000000
			0,012192	-0,416407	0,012192	42,000000
			0,012288	-0,718869	0,012288	59,000000
			0,012384	-1,020167	0,012384	75,000000
			0,012480	-1,319115	0,012480	89,000000
			0,012576	-1,614535	0,012576	102,000000
			0,012672	-1,905260	0,012672	112,000000
			0,012768	-2,190141	0,012768	122,000000
			0,012864	-2,468050	0,012864	129,000000
			0,012960	-2,737885	0,012960	135,000000
			0,013056	-2,998575	0,013056	140,000000
			0,013152	-3,249083	0,013152	144,000000
			0,013248	-3,488410	0,013248	146,000000
			0,013344	-3,715602	0,013344	147,000000
			0,013440	-3,929750	0,013440	147,000000
			0,013536	-4,129995	0,013536	146,000000
			0,013632	-4,315534	0,013632	144,000000
			0,013728	-4,485617	0,013728	142,000000
			0,013824	-4,639559	0,013824	138,000000
			0,013920	-4,776734	0,013920	134,000000
			0,014016	-4,896582	0,014016	129,000000
			0,014112	-4,998614	0,014112	124,000000
			0,014208	-5,082406	0,014208	118,000000
			0,014304	-5,147609	0,014304	112,000000
			0,014400	-5,193945	0,014400	105,000000
			0,014496	-5,221213	0,014496	98,000000
			0,014592	-5,229284	0,014592	91,000000
			0,014688	-5,218106	0,014688	84,000000
			0,014784	-5,187705	0,014784	77,000000
			0,014880	-5,138181	0,014880	70,000000
			0,014976	-5,069711	0,014976	62,000000
			0,015072	-4,982545	0,015072	55,000000
			0,015168	-4,877011	0,015168	48,000000
			0,015264	-4,753507	0,015264	41,000000
			0,015360	-4,612505	0,015360	34,000000
			0,015456	-4,454547	0,015456	28,000000
			0,015552	-4,280241	0,015552	21,000000
			0,015648	-4,090262	0,015648	15,000000
			0,015744	-3,885347	0,015744	9,000000
			0,015840	-3,666295	0,015840	4,000000
			0,015936	-3,433961	0,015936	-1,000000
			0,016032	-3,189254	0,016032	-6,000000
			0,016128	-2,933132	0,016128	-11,000000
			0,016224	-2,666602	0,016224	-15,000000
			0,016320	-2,390711	0,016320	-19,000000
			0,016416	-2,106546	0,016416	-22,000000
			0,016512	-1,815228	0,016512	-25,000000
			0,016608	-1,517907	0,016608	-28,000000
			0,016704	-1,215759	0,016704	-30,000000
			0,016800	-0,909981	0,016800	-33,000000
			0,016896	-0,601784	0,016896	-34,000000
			0,016992	-0,292391	0,016992	-36,000000
			0,017088	0,016968	0,017088	-37,000000
			0,017184	0,325062	0,017184	-38,000000
			0,017280	0,630666	0,017280	-38,000000
			0,017376	0,932561	0,017376	-38,000000
			0,017472	1,229543	0,017472	-38,000000
			0,017568	1,520424	0,017568	-38,000000
			0,017664	1,804042	0,017664	-37,000000
			0,017760	2,079261	0,017760	-37,000000
			0,017856	2,344977	0,017856	-36,000000
			0,017952	2,600125	0,017952	-35,000000
			0,018048	2,843678	0,018048	-33,000000
			0,018144	3,074657	0,018144	-32,000000
			0,018240	3,292131	0,018240	-30,000000
			0,018336	3,495221	0,018336	-29,000000
			0,018432	3,683106	0,018432	-27,000000
			0,018528	3,855025	0,018528	-25,000000
			0,018624	4,010280	0,018624	-23,000000
			0,018720	4,148237	0,018720	-21,000000
			0,018816	4,268333	0,018816	-19,000000
			0,018912	4,370074	0,018912	-17,000000
			0,019008	4,453041	0,019008	-15,000000
			0,019104	4,516888	0,019104	-13,000000
			0,019200	4,561347	0,019200	-11,000000
			0,019296	4,586223	0,019296	-9,000000
			0,019392	4,591406	0,019392	-7,000000
			0,019488	4,576858	0,019488	-5,000000
			0,019584	4,542624	0,019584	-3,000000
			0,019680	4,488827	0,019680	-1,000000
			0,019776	4,415667	0,019776	1,000000
			0,019872	4,323425	0,019872	2,000000
			0,019968	4,212455	0,019968	4,000000
			0,020064	4,083188	0,020064	6,000000
			0,020160	3,936129	0,020160	7,000000
			0,020256	3,771854	0,020256	8,000000
			0,020352	3,591010	0,020352	9,000000
			0,020448	3,394307	0,020448	10,000000
			0,020544	3,182525	0,020544	11,000000
			0,020640	2,956499	0,020640	12,000000
			0,020736	2,717126	0,020736	13,000000
			0,020832	2,465356	0,020832	14,000000
			0,020928	2,202189	0,020928	14,000000
			0,021024	1,928672	0,021024	14,000000
			0,021120	1,645893	0,021120	15,000000
			0,021216	1,354979	0,021216	15,000000
			0,021312	1,057091	0,021312	15,000000
			0,021408	0,753419	0,021408	15,000000
			0,021504	0,445174	0,021504	15,000000
			0,021600	0,133589	0,021600	15,000000
			0,021696	-0,180089	0,021696	14,000000
			0,021792	-0,494604	0,021792	14,000000
			0,021888	-0,808697	0,021888	14,000000
			0,021984	-1,121109	0,021984	13,000000
			0,022080	-1,430587	0,022080	13,000000
			0,022176	-1,735889	0,022176	12,000000
			0,022272	-2,035789	0,022272	11,000000
			0,022368	-2,329083	0,022368	11,000000
			0,022464	-2,614591	0,022464	10,000000
			0,022560	-2,891166	0,022560	9,000000
			0,022656	-3,157694	0,022656	8,000000
			0,022752	-3,413103	0,022752	7,000000
			0,022848	-3,656362	0,022848	6,000000
			0,022944	-3,886492	0,022944	5,000000
			0,023040	-4,102564	0,023040	5,000000
			0,023136	-4,303705	0,023136	4,000000
			0,023232	-4,489104	0,023232	3,000000
			0,023328	-4,658010	0,023328	2,000000
			0,023424	-4,809740	0,023424	1,000000
			0,023520	-4,943678	0,023520	0,000000
			0,023616	-5,059282	0,023616	-1,000000
			0,023712	-5,156080	0,023712	-2,000000
			0,023808	-5,233678	0,023808	-3,000000
			0,023904	-5,291759	0,023904	-3,000000
			0,024000	-5,330083	0,024000	-4,000000
			0,024096	-5,348491	0,024096	-5,000000
			0,024192	-5,346903	0,024192	-6,000000
			0,024288	-5,325319	0,024288	-6,000000
			0,024384	-5,283822	0,024384	-7,000000
			0,024480	-5,222571	0,024480	-7,000000
			0,024576	-5,141808	0,024576	-8,000000
			0,024672	-5,041853	0,024672	-8,000000
			0,024768	-4,923102	0,024768	-9,000000
			0,024864	-4,786028	0,024864	-9,000000
			0,024960	-4,631178	0,024960	-9,000000
			0,025056	-4,459168	0,025056	-10,000000
			0,025152	-4,270688	0,025152	-10,000000
			0,025248	-4,066489	0,025248	-10,000000
			0,025344	-3,847391	0,025344	-10,000000
			0,025440	-3,614269	0,025440	-10,000000
			0,025536	-3,368058	0,025536	-10,000000
			0,025632	-3,109745	0,025632	-10,000000
			0,025728	-2,840366	0,025728	-10,000000
			0,025824	-2,561000	0,025824	-10,000000
			0,025920	-2,272769	0,025920	-10,000000
			0,026016	-1,976829	0,026016	-9,000000
			0,026112	-1,674369	0,026112	-9,000000
			0,026208	-1,366601	0,026208	-9,000000
			0,026304	-1,054763	0,026304	-8,000000
			0,026400	-0,740105	0,026400	-8,000000
			0,026496	-0,423892	0,026496	-8,000000
			0,026592	-0,107394	0,026592	-7,000000
			0,026688	0,208117	0,026688	-7,000000
			0,026784	0,521376	0,026784	-6,000000
			0,026880	0,831123	0,026880	-6,000000
			0,026976	1,136113	0,026976	-5,000000
			0,027072	1,435123	0,027072	-5,000000
			0,027168	1,726951	0,027168	-4,000000
			0,027264	2,010424	0,027264	-3,000000
			0,027360	2,284404	0,027360	-3,000000
			0,027456	2,547790	0,027456	-2,000000
			0,027552	2,799526	0,027552	-2,000000
			0,027648	3,038600	0,027648	-1,000000
			0,027744	3,264052	0,027744	-1,000000
			0,027840	3,474977	0,027840	0,000000
			0,027936	3,670530	0,027936	0,000000
			0,028032	3,849925	0,028032	1,000000
			0,028128	4,012443	0,028128	2,000000
			0,028224	4,157432	0,028224	2,000000
			0,028320	4,284312	0,028320	3,000000
			0,028416	4,392574	0,028416	3,000000
			0,028512	4,481786	0,028512	3,000000
			0,028608	4,551591	0,028608	4,000000
			0,028704	4,601710	0,028704	4,000000
			0,028800	4,631944	0,028800	5,000000
			0,028896	4,642175	0,028896	5,000000
			0,028992	4,632363	0,028992	5,000000
			0,029088	4,602551	0,029088	6,000000
			0,029184	4,552860	0,029184	6,000000
			0,029280	4,483492	0,029280	6,000000
			0,029376	4,394729	0,029376	6,000000
			0,029472	4,286930	0,029472	7,000000
			0,029568	4,160531	0,029568	7,000000
			0,029664	4,016040	0,029664	7,000000
			0,029760	3,854041	0,029760	7,000000
			0,029856	3,675187	0,029856	7,000000
			0,029952	3,480198	0,029952	7,000000
			0,030048	3,269858	0,030048	7,000000
			0,030144	3,045015	0,030144	7,000000
			0,030240	2,806573	0,030240	7,000000
			0,030336	2,555489	0,030336	7,000000
			0,030432	2,292775	0,030432	7,000000
			0,030528	2,019484	0,030528	6,000000
			0,030624	1,736715	0,030624	6,000000
			0,030720	1,445602	0,030720	6,000000
			0,030816	1,147316	0,030816	6,000000
			0,030912	0,843051	0,030912	6,000000
			0,031008	0,534029	0,031008	5,000000
			0,031104	0,221488	0,031104	5,000000
			0,031200	-0,093319	0,031200	5,000000
			0,031296	-0,409130	0,031296	4,000000
			0,031392	-0,724681	0,031392	4,000000
			0,031488	-1,038708	0,031488	4,000000
			0,031584	-1,349956	0,031584	3,000000
			0,031680	-1,657178	0,031680	3,000000
			0,031776	-1,959147	0,031776	2,000000
			0,031872	-2,254655	0,031872	2,000000
			0,031968	-2,542523	0,031968	2,000000
			0,032064	-2,821600	0,032064	1,000000
			0,032160	-3,090775	0,032160	1,000000
			0,032256	-3,348972	0,032256	0,000000
			0,032352	-3,595164	0,032352	0,000000
			0,032448	-3,828370	0,032448	0,000000
			0,032544	-4,047662	0,032544	-1,000000
			0,032640	-4,252168	0,032640	-1,000000
			0,032736	-4,441077	0,032736	-2,000000
			0,032832	-4,613638	0,032832	-2,000000
			0,032928	-4,769169	0,032928	-2,000000
			0,033024	-4,907054	0,033024	-3,000000
			0,033120	-5,026749	0,033120	-3,000000
			0,033216	-5,127783	0,033216	-3,000000
			0,033312	-5,209760	0,033312	-4,000000
			0,033408	-5,272360	0,033408	-4,000000
			0,033504	-5,315341	0,033504	-4,000000
			0,033600	-5,338539	0,033600	-5,000000
			0,033696	-5,341869	0,033696	-5,000000
			0,033792	-5,325327	0,033792	-5,000000
			0,033888	-5,288986	0,033888	-5,000000
			0,033984	-5,233001	0,033984	-6,000000
			0,034080	-5,157603	0,034080	-6,000000
			0,034176	-5,063102	0,034176	-6,000000
			0,034272	-4,949881	0,034272	-6,000000
			0,034368	-4,818402	0,034368	-6,000000
			0,034464	-4,669197	0,034464	-6,000000
			0,034560	-4,502868	0,034560	-6,000000
			0,034656	-4,320086	0,034656	-6,000000
			0,034752	-4,121588	0,034752	-6,000000
			0,034848	-3,908171	0,034848	-6,000000
			0,034944	-3,680693	0,034944	-6,000000
			0,035040	-3,440067	0,035040	-6,000000
			0,035136	-3,187257	0,035136	-6,000000
			0,035232	-2,923276	0,035232	-6,000000
			0,035328	-2,649180	0,035328	-6,000000
			0,035424	-2,366067	0,035424	-6,000000
			0,035520	-2,075066	0,035520	-6,000000
			0,035616	-1,777341	0,035616	-5,000000
			0,035712	-1,474080	0,035712	-5,000000
			0,035808	-1,166491	0,035808	-5,000000
			0,035904	-0,855801	0,035904	-5,000000
			0,036000	-0,543248	0,036000	-5,000000
			0,036096	-0,230075	0,036096	-4,000000
			0,036192	0,082472	0,036192	-4,000000
			0,036288	0,393150	0,036288	-4,000000
			0,036384	0,700725	0,036384	-3,000000
			0,036480	1,003977	0,036480	-3,000000
			0,036576	1,301702	0,036576	-3,000000
			0,036672	1,592720	0,036672	-3,000000
			0,036768	1,875878	0,036768	-2,000000
			0,036864	2,150056	0,036864	-2,000000
			0,036960	2,414170	0,036960	-2,000000
			0,037056	2,667175	0,037056	-1,000000
			0,037152	2,908073	0,037152	-1,000000
			0,037248	3,135914	0,037248	-1,000000
			0,037344	3,349801	0,037344	0,000000
			0,037440	3,548893	0,037440	0,000000
			0,037536	3,732406	0,037536	0,000000
			0,037632	3,899623	0,037632	1,000000
			0,037728	4,049887	0,037728	1,000000
			0,037824	4,182613	0,037824	1,000000
			0,037920	4,297283	0,037920	2,000000
			0,038016	4,393453	0,038016	2,000000
			0,038112	4,470752	0,038112	2,000000
			0,038208	4,528884	0,038208	2,000000
			0,038304	4,567629	0,038304	3,000000
			0,038400	4,586844	0,038400	3,000000
			0,038496	4,586464	0,038496	3,000000
			0,038592	4,566502	0,038592	3,000000
			0,038688	4,527047	0,038688	4,000000
			0,038784	4,468268	0,038784	4,000000
			0,038880	4,390408	0,038880	4,000000
			0,038976	4,293786	0,038976	4,000000
			0,039072	4,178795	0,039072	4,000000
			0,039168	4,045901	0,039168	4,000000
			0,039264	3,895641	0,039264	4,000000
			0,039360	3,728620	0,039360	5,000000
			0,039456	3,545508	0,039456	5,000000
			0,039552	3,347038	0,039552	5,000000
			0,039648	3,134007	0,039648	5,000000
			0,039744	2,907263	0,039744	5,000000
			0,039840	2,667714	0,039840	5,000000
			0,039936	2,416314	0,039936	5,000000
			0,040032	2,154064	0,040032	5,000000
			0,040128	1,882008	0,040128	5,000000
			0,040224	1,601228	0,040224	4,000000
			0,040320	1,312839	0,040320	4,000000
			0,040416	1,017986	0,040416	4,000000
			0,040512	0,717840	0,040512	4,000000
			0,040608	0,413589	0,040608	4,000000
			0,040704	0,106439	0,040704	4,000000
			0,040800	-0,202394	0,040800	4,000000
			0,040896	-0,511687	0,040896	3,000000
			0,040992	-0,820218	0,040992	3,000000
			0,041088	-1,126768	0,041088	3,000000
			0,041184	-1,430125	0,041184	3,000000
			0,041280	-1,729093	0,041280	3,000000
			0,041376	-2,022491	0,041376	2,000000
			0,041472	-2,309164	0,041472	2,000000
			0,041568	-2,587982	0,041568	2,000000
			0,041664	-2,857847	0,041664	2,000000
			0,041760	-3,117698	0,041760	1,000000
			0,041856	-3,366513	0,041856	1,000000
			0,041952	-3,603313	0,041952	1,000000
			0,042048	-3,827171	0,042048	1,000000
			0,042144	-4,037207	0,042144	0,000000
			0,042240	-4,232599	0,042240	0,000000
			0,042336	-4,412582	0,042336	0,000000
			0,042432	-4,576452	0,042432	-1,000000
			0,042528	-4,723569	0,042528	-1,000000
			0,042624	-4,853361	0,042624	-1,000000
			0,042720	-4,965322	0,042720	-1,000000
			0,042816	-5,059018	0,042816	-2,000000
			0,042912	-5,134088	0,042912	-2,000000
			0,043008	-5,190243	0,043008	-2,000000
			0,043104	-5,227269	0,043104	-2,000000
			0,043200	-5,245028	0,043200	-3,000000
			0,043296	-5,243458	0,043296	-3,000000
			0,043392	-5,222573	0,043392	-3,000000
			0,043488	-5,182463	0,043488	-3,000000
			0,043584	-5,123294	0,043584	-4,000000
			0,043680	-5,045306	0,043680	-4,000000
			0,043776	-4,948814	0,043776	-4,000000
			0,043872	-4,834207	0,043872	-4,000000
			0,043968	-4,701942	0,043968	-4,000000
			0,044064	-4,552547	0,044064	-4,000000
			0,044160	-4,386619	0,044160	-4,000000
			0,044256	-4,204817	0,044256	-5,000000
			0,044352	-4,007863	0,044352	-5,000000
			0,044448	-3,796541	0,044448	-5,000000
			0,044544	-3,571686	0,044544	-5,000000
			0,044640	-3,334192	0,044640	-5,000000
			0,044736	-3,084998	0,044736	-5,000000
			0,044832	-2,825091	0,044832	-5,000000
			0,044928	-2,555498	0,044928	-5,000000
			0,045024	-2,277287	0,045024	-5,000000
			0,045120	-1,991555	0,045120	-5,000000
			0,045216	-1,699433	0,045216	-5,000000
			0,045312	-1,402074	0,045312	-5,000000
			0,045408	-1,100652	0,045408	-5,000000
			0,045504	-0,796356	0,045504	-5,000000
			0,045600	-0,490387	0,045600	-4,000000
			0,045696	-0,183952	0,045696	-4,000000
			0,045792	0,121740	0,045792	-4,000000
			0,045888	0,425484	0,045888	-4,000000
			0,045984	0,726082	0,045984	-4,000000
			0,046080	1,022351	0,046080	-4,000000
			0,046176	1,313122	0,046176	-4,000000
			0,046272	1,597249	0,046272	-3,000000
			0,046368	1,873614	0,046368	-3,000000
			0,046464	2,141127	0,046464	-3,000000
			0,046560	2,398734	0,046560	-3,000000
			0,046656	2,645422	0,046656	-2,000000
			0,046752	2,880219	0,046752	-2,000000
			0,046848	3,102199	0,046848	-2,000000
			0,046944	3,310489	0,046944	-2,000000
			0,047040	3,504269	0,047040	-2,000000
			0,047136	3,682775	0,047136	-1,000000
			0,047232	3,845305	0,047232	-1,000000
			0,047328	3,991218	0,047328	-1,000000
			0,047424	4,119939	0,047424	0,000000
			0,047520	4,230962	0,047520	0,000000
			0,047616	4,323849	0,047616	0,000000
			0,047712	4,398233	0,047712	0,000000
			0,047808	4,453822	0,047808	1,000000
			0,047904	4,490396	0,047904	1,000000
			0,048000	4,507810	0,048000	1,000000
			0,048096	4,505995	0,048096	1,000000
			0,048192	4,484957	0,048192	1,000000
			0,048288	4,444778	0,048288	2,000000
			0,048384	4,385615	0,048384	2,000000
			0,048480	4,307701	0,048480	2,000000
			0,048576	4,211340	0,048576	2,000000
			0,048672	4,096911	0,048672	3,000000
			0,048768	3,964863	0,048768	3,000000
			0,048864	3,815716	0,048864	3,000000
			0,048960	3,650054	0,048960	3,000000
			0,049056	3,468529	0,049056	3,000000
			0,049152	3,271855	0,049152	3,000000
			0,049248	3,060805	0,049248	3,000000
			0,049344	2,836209	0,049344	4,000000
			0,049440	2,598949	0,049440	4,000000
			0,049536	2,349961	0,049536	4,000000
			0,049632	2,090223	0,049632	4,000000
			0,049728	1,820758	0,049728	4,000000
			0,049824	1,542627	0,049824	4,000000
			0,049920	1,256924	0,049920	4,000000
			0,050016	0,964775	0,050016	4,000000
			0,050112	0,667331	0,050112	4,000000
			0,050208	0,365765	0,050208	4,000000
			0,050304	0,061263	0,050304	4,000000
			0,050400	-0,244972	0,050400	4,000000
			0,050496	-0,551734	0,050496	4,000000
			0,050592	-0,857811	0,050592	4,000000
			0,050688	-1,161997	0,050688	4,000000
			0,050784	-1,463090	0,050784	4,000000
			0,050880	-1,759901	0,050880	3,000000
			0,050976	-2,051258	0,050976	3,000000
			0,051072	-2,336010	0,051072	3,000000
			0,051168	-2,613029	0,051168	3,000000
			0,051264	-2,881220	0,051264	3,000000
			0,051360	-3,139521	0,051360	3,000000
			0,051456	-3,386910	0,051456	2,000000
			0,051552	-3,622405	0,051552	2,000000
			0,051648	-3,845073	0,051648	2,000000
			0,051744	-4,054029	0,051744	2,000000
			0,051840	-4,248443	0,051840	2,000000
			0,051936	-4,427542	0,051936	1,000000
			0,052032	-4,590611	0,052032	1,000000
			0,052128	-4,737001	0,052128	1,000000
			0,052224	-4,866126	0,052224	1,000000
			0,052320	-4,977469	0,052320	0,000000
			0,052416	-5,070581	0,052416	0,000000
			0,052512	-5,145087	0,052512	0,000000
			0,052608	-5,200684	0,052608	0,000000
			0,052704	-5,237144	0,052704	-1,000000
			0,052800	-5,254313	0,052800	-1,000000
			0,052896	-5,252114	0,052896	-1,000000
			0,052992	-5,230546	0,052992	-1,000000
			0,053088	-5,189685	0,053088	-2,000000
			0,053184	-5,129683	0,053184	-2,000000
			0,053280	-5,050766	0,053280	-2,000000
			0,053376	-4,953237	0,053376	-2,000000
			0,053472	-4,837471	0,053472	-3,000000
			0,053568	-4,703916	0,053568	-3,000000
			0,053664	-4,553091	0,053664	-3,000000
			0,053760	-4,385581	0,053760	-3,000000
			0,053856	-4,202041	0,053856	-3,000000
			0,053952	-4,003185	0,053952	-4,000000
			0,054048	-3,789793	0,054048	-4,000000
			0,054144	-3,562699	0,054144	-4,000000
			0,054240	-3,322792	0,054240	-4,000000
			0,054336	-3,071015	0,054336	-4,000000
			0,054432	-2,808355	0,054432	-4,000000
			0,054528	-2,535846	0,054528	-4,000000
			0,054624	-2,254557	0,054624	-5,000000
			0,054720	-1,965597	0,054720	-5,000000
			0,054816	-1,670104	0,054816	-5,000000
			0,054912	-1,369242	0,054912	-5,000000
			0,055008	-1,064198	0,055008	-5,000000
			0,055104	-0,756176	0,055104	-5,000000
			0,055200	-0,446392	0,055200	-5,000000
			0,055296	-0,136070	0,055296	-5,000000
			0,055392	0,173562	0,055392	-5,000000
			0,055488	0,481279	0,055488	-5,000000
			0,055584	0,785862	0,055584	-5,000000
			0,055680	1,086105	0,055680	-5,000000
			0,055776	1,380818	0,055776	-5,000000
			0,055872	1,668829	0,055872	-5,000000
			0,055968	1,948997	0,055968	-4,000000
			0,056064	2,220206	0,056064	-4,000000
			0,056160	2,481379	0,056160	-4,000000
			0,056256	2,731476	0,056256	-4,000000
			0,056352	2,969500	0,056352	-4,000000
			0,056448	3,194502	0,056448	-4,000000
			0,056544	3,405583	0,056544	-3,000000
			0,056640	3,601898	0,056640	-3,000000
			0,056736	3,782662	0,056736	-3,000000
			0,056832	3,947151	0,056832	-3,000000
			0,056928	4,094701	0,056928	-3,000000
			0,057024	4,224721	0,057024	-2,000000
			0,057120	4,336683	0,057120	-2,000000
			0,057216	4,430135	0,057216	-2,000000
			0,057312	4,504694	0,057312	-2,000000
			0,057408	4,560056	0,057408	-1,000000
			0,057504	4,595989	0,057504	-1,000000
			0,057600	4,612341	0,057600	-1,000000
			0,057696	4,609035	0,057696	0,000000
			0,057792	4,586073	0,057792	0,000000
			0,057888	4,543537	0,057888	0,000000
			0,057984	4,481583	0,057984	0,000000
			0,058080	4,400447	0,058080	1,000000
			0,058176	4,300441	0,058176	1,000000
			0,058272	4,181951	0,058272	1,000000
			0,058368	4,045438	0,058368	1,000000
			0,058464	3,891434	0,058464	2,000000
			0,058560	3,720541	0,058560	2,000000
			0,058656	3,533429	0,058656	2,000000
			0,058752	3,330833	0,058752	3,000000
			0,058848	3,113549	0,058848	3,000000
			0,058944	2,882433	0,058944	3,000000
			0,059040	2,638396	0,059040	3,000000
			0,059136	2,382402	0,059136	3,000000
			0,059232	2,115462	0,059232	4,000000
			0,059328	1,838632	0,059328	4,000000
			0,059424	1,553008	0,059424	4,000000
			0,059520	1,259721	0,059520	4,000000
			0,059616	0,959933	0,059616	4,000000
			0,059712	0,654835	0,059712	4,000000
			0,059808	0,345638	0,059808	4,000000
			0,059904	0,033570	0,059904	5,000000
			0,060000	-0,280129	0,060000	5,000000
			0,060096	-0,594210	0,060096	5,000000
			0,060192	-0,907423	0,060192	5,000000
			0,060288	-1,218520	0,060288	5,000000
			0,060384	-1,526262	0,060384	5,000000
			0,060480	-1,829422	0,060480	5,000000
			0,060576	-2,126788	0,060576	5,000000
			0,060672	-2,417175	0,060672	5,000000
			0,060768	-2,699421	0,060768	5,000000
			0,060864	-2,972399	0,060864	4,000000
			0,060960	-3,235015	0,060960	4,000000
			0,061056	-3,486219	0,061056	4,000000
			0,061152	-3,725003	0,061152	4,000000
			0,061248	-3,950411	0,061248	4,000000
			0,061344	-4,161538	0,061344	4,000000
			0,061440	-4,357535	0,061440	4,000000
			0,061536	-4,537614	0,061536	3,000000
			0,061632	-4,701050	0,061632	3,000000
			0,061728	-4,847184	0,061728	3,000000
			0,061824	-4,975426	0,061824	3,000000
			0,061920	-5,085258	0,061920	2,000000
			0,062016	-5,176232	0,062016	2,000000
			0,062112	-5,247980	0,062112	2,000000
			0,062208	-5,300206	0,062208	2,000000
			0,062304	-5,332696	0,062304	1,000000
			0,062400	-5,345312	0,062400	1,000000
			0,062496	-5,337997	0,062496	1,000000
			0,062592	-5,310773	0,062592	0,000000
			0,062688	-5,263741	0,062688	0,000000
			0,062784	-5,197084	0,062784	0,000000
			0,062880	-5,111060	0,062880	-1,000000
			0,062976	-5,006009	0,062976	-1,000000
			0,063072	-4,882342	0,063072	-1,000000
			0,063168	-4,740550	0,063168	-2,000000
			0,063264	-4,581194	0,063264	-2,000000
			0,063360	-4,404906	0,063360	-2,000000
			0,063456	-4,212387	0,063456	-3,000000
			0,063552	-4,004401	0,063552	-3,000000
			0,063648	-3,781778	0,063648	-3,000000
			0,063744	-3,545404	0,063744	-4,000000
			0,063840	-3,296222	0,063840	-4,000000
			0,063936	-3,035227	0,063936	-4,000000
			0,064032	-2,763460	0,064032	-4,000000
			0,064128	-2,482007	0,064128	-5,000000
			0,064224	-2,191994	0,064224	-5,000000
			0,064320	-1,894581	0,064320	-5,000000
			0,064416	-1,590957	0,064416	-5,000000
			0,064512	-1,282338	0,064512	-6,000000
			0,064608	-0,969960	0,064608	-6,000000
			0,064704	-0,655074	0,064704	-6,000000
			0,064800	-0,338943	0,064800	-6,000000
			0,064896	-0,022834	0,064896	-6,000000
			0,064992	0,291985	0,064992	-6,000000
			0,065088	0,604252	0,065088	-6,000000
			0,065184	0,912713	0,065184	-6,000000
			0,065280	1,216129	0,065280	-6,000000
			0,065376	1,513282	0,065376	-6,000000
			0,065472	1,802979	0,065472	-6,000000
			0,065568	2,084055	0,065568	-6,000000
			0,065664	2,355380	0,065664	-6,000000
			0,065760	2,615864	0,065760	-6,000000
			0,065856	2,864460	0,065856	-6,000000
			0,065952	3,100166	0,065952	-6,000000
			0,066048	3,322034	0,066048	-6,000000
			0,066144	3,529171	0,066144	-6,000000
			0,066240	3,720744	0,066240	-5,000000
			0,066336	3,895979	0,066336	-5,000000
			0,066432	4,054172	0,066432	-5,000000
			0,066528	4,194683	0,066528	-5,000000
			0,066624	4,316947	0,066624	-4,000000
			0,066720	4,420469	0,066720	-4,000000
			0,066816	4,504831	0,066816	-4,000000
			0,066912	4,569692	0,066912	-3,000000
			0,067008	4,614789	0,067008	-3,000000
			0,067104	4,639939	0,067104	-3,000000
			0,067200	4,645037	0,067200	-2,000000
			0,067296	4,630063	0,067296	-2,000000
			0,067392	4,595073	0,067392	-1,000000
			0,067488	4,540208	0,067488	-1,000000
			0,067584	4,465684	0,067584	-1,000000
			0,067680	4,371802	0,067680	0,000000
			0,067776	4,258935	0,067776	0,000000
			0,067872	4,127537	0,067872	1,000000
			0,067968	3,978135	0,067968	1,000000
			0,068064	3,811327	0,068064	1,000000
			0,068160	3,627784	0,068160	2,000000
			0,068256	3,428242	0,068256	2,000000
			0,068352	3,213503	0,068352	3,000000
			0,068448	2,984430	0,068448	3,000000
			0,068544	2,741942	0,068544	4,000000
			0,068640	2,487014	0,068640	4,000000
			0,068736	2,220671	0,068736	4,000000
			0,068832	1,943982	0,068832	5,000000
			0,068928	1,658060	0,068928	5,000000
			0,069024	1,364054	0,069024	5,000000
			0,069120	1,063146	0,069120	6,000000
			0,069216	0,756545	0,069216	6,000000
			0,069312	0,445483	0,069312	6,000000
			0,069408	0,131210	0,069408	6,000000
			0,069504	-0,185010	0,069504	7,000000
			0,069600	-0,501907	0,069600	7,000000
			0,069696	-0,818208	0,069696	7,000000
			0,069792	-1,132642	0,069792	7,000000
			0,069888	-1,443946	0,069888	7,000000
			0,069984	-1,750870	0,069984	7,000000
			0,070080	-2,052180	0,070080	7,000000
			0,070176	-2,346668	0,070176	7,000000
			0,070272	-2,633151	0,070272	7,000000
			0,070368	-2,910479	0,070368	7,000000
			0,070464	-3,177541	0,070464	7,000000
			0,070560	-3,433264	0,070560	7,000000
			0,070656	-3,676624	0,070656	7,000000
			0,070752	-3,906645	0,070752	6,000000
			0,070848	-4,122407	0,070848	6,000000
			0,070944	-4,323045	0,070944	6,000000
			0,071040	-4,507757	0,071040	6,000000
			0,071136	-4,675804	0,071136	5,000000
			0,071232	-4,826516	0,071232	5,000000
			0,071328	-4,959290	0,071328	4,000000
			0,071424	-5,073600	0,071424	4,000000
			0,071520	-5,168988	0,071520	4,000000
			0,071616	-5,245079	0,071616	3,000000
			0,071712	-5,301571	0,071712	3,000000
			0,071808	-5,338244	0,071808	2,000000
			0,071904	-5,354954	0,071904	2,000000
			0,072000	-5,351642	0,072000	1,000000
			0,072096	-5,328325	0,072096	1,000000
			0,072192	-5,285105	0,072192	0,000000
			0,072288	-5,222160	0,072288	-1,000000
			0,072384	-5,139749	0,072384	-1,000000
			0,072480	-5,038210	0,072480	-2,000000
			0,072576	-4,917956	0,072576	-2,000000
			0,072672	-4,779475	0,072672	-3,000000
			0,072768	-4,623331	0,072768	-4,000000
			0,072864	-4,450154	0,072864	-4,000000
			0,072960	-4,260646	0,072960	-5,000000
			0,073056	-4,055572	0,073056	-5,000000
			0,073152	-3,835762	0,073152	-6,000000
			0,073248	-3,602100	0,073248	-6,000000
			0,073344	-3,355531	0,073344	-7,000000
			0,073440	-3,097046	0,073440	-7,000000
			0,073536	-2,827686	0,073536	-8,000000
			0,073632	-2,548536	0,073632	-8,000000
			0,073728	-2,260717	0,073728	-9,000000
			0,073824	-1,965386	0,073824	-9,000000
			0,073920	-1,663729	0,073920	-9,000000
			0,074016	-1,356956	0,074016	-10,000000
			0,074112	-1,046298	0,074112	-10,000000
			0,074208	-0,733001	0,074208	-10,000000
			0,074304	-0,418318	0,074304	-10,000000
			0,074400	-0,103511	0,074400	-10,000000
			0,074496	0,210163	0,074496	-10,000000
			0,074592	0,521448	0,074592	-10,000000
			0,074688	0,829101	0,074688	-10,000000
			0,074784	1,131895	0,074784	-10,000000
			0,074880	1,428621	0,074880	-10,000000
			0,074976	1,718097	0,074976	-10,000000
			0,075072	1,999171	0,075072	-10,000000
			0,075168	2,270723	0,075168	-9,000000
			0,075264	2,531676	0,075264	-9,000000
			0,075360	2,780994	0,075360	-8,000000
			0,075456	3,017687	0,075456	-8,000000
			0,075552	3,240819	0,075552	-7,000000
			0,075648	3,449508	0,075648	-7,000000
			0,075744	3,642931	0,075744	-6,000000
			0,075840	3,820325	0,075840	-6,000000
			0,075936	3,980995	0,075936	-5,000000
			0,076032	4,124310	0,076032	-4,000000
			0,076128	4,249710	0,076128	-3,000000
			0,076224	4,356710	0,076224	-2,000000
			0,076320	4,444895	0,076320	-1,000000
			0,076416	4,513928	0,076416	-1,000000
			0,076512	4,563548	0,076512	0,000000
			0,076608	4,593572	0,076608	1,000000
			0,076704	4,603896	0,076704	2,000000
			0,076800	4,594493	0,076800	3,000000
			0,076896	4,565417	0,076896	4,000000
			0,076992	4,516799	0,076992	5,000000
			0,077088	4,448850	0,077088	6,000000
			0,077184	4,361854	0,077184	7,000000
			0,077280	4,256176	0,077280	8,000000
			0,077376	4,132251	0,077376	9,000000
			0,077472	3,990587	0,077472	10,000000
			0,077568	3,831765	0,077568	11,000000
			0,077664	3,656430	0,077664	12,000000
			0,077760	3,465295	0,077760	13,000000
			0,077856	3,259135	0,077856	13,000000
			0,077952	3,038782	0,077952	14,000000
			0,078048	2,805125	0,078048	15,000000
			0,078144	2,559106	0,078144	15,000000
			0,078240	2,301714	0,078240	16,000000
			0,078336	2,033982	0,078336	16,000000
			0,078432	1,756984	0,078432	16,000000
			0,078528	1,471830	0,078528	16,000000
			0,078624	1,179658	0,078624	16,000000
			0,078720	0,881638	0,078720	16,000000
			0,078816	0,578957	0,078816	16,000000
			0,078912	0,272822	0,078912	16,000000
			0,079008	-0,035548	0,079008	16,000000
			0,079104	-0,344928	0,079104	15,000000
			0,079200	-0,654089	0,079200	15,000000
			0,079296	-0,961805	0,079296	14,000000
			0,079392	-1,266856	0,079392	13,000000
			0,079488	-1,568036	0,079488	12,000000
			0,079584	-1,864154	0,079584	11,000000
			0,079680	-2,154042	0,079680	10,000000
			0,079776	-2,436557	0,079776	8,000000
			0,079872	-2,710586	0,079872	7,000000
			0,079968	-2,975055	0,079968	5,000000
			0,080064	-3,228923	0,080064	3,000000
			0,080160	-3,471199	0,080160	2,000000
			0,080256	-3,700933	0,080256	0,000000
			0,080352	-3,917230	0,080352	-2,000000
			0,080448	-4,119248	0,080448	-4,000000
			0,080544	-4,306203	0,080544	-7,000000
			0,080640	-4,477371	0,080640	-9,000000
			0,080736	-4,632092	0,080736	-11,000000
			0,080832	-4,769771	0,080832	-13,000000
			0,080928	-4,889884	0,080928	-16,000000
			0,081024	-4,991973	0,081024	-18,000000
			0,081120	-5,075654	0,081120	-20,000000
			0,081216	-5,140618	0,081216	-23,000000
			0,081312	-5,186627	0,081312	-25,000000
			0,081408	-5,213521	0,081408	-27,000000
			0,081504	-5,221213	0,081504	-30,000000
			0,081600	-5,209696	0,081600	-32,000000
			0,081696	-5,179034	0,081696	-34,000000
			0,081792	-5,129371	0,081792	-36,000000
			0,081888	-5,060922	0,081888	-38,000000
			0,081984	-4,973978	0,081984	-39,000000
			0,082080	-4,868903	0,082080	-41,000000
			0,082176	-4,746130	0,082176	-42,000000
			0,082272	-4,606162	0,082272	-43,000000
			0,082368	-4,449571	0,082368	-44,000000
			0,082464	-4,276992	0,082464	-44,000000
			0,082560	-4,089121	0,082560	-45,000000
			0,082656	-3,886715	0,082656	-45,000000
			0,082752	-3,670587	0,082752	-44,000000
			0,082848	-3,441603	0,082848	-44,000000
			0,082944	-3,200677	0,082944	-42,000000
			0,083040	-2,948772	0,083040	-41,000000
			0,083136	-2,686888	0,083136	-39,000000
			0,083232	-2,416068	0,083232	-37,000000
			0,083328	-2,137386	0,083328	-34,000000
			0,083424	-1,851945	0,083424	-31,000000
			0,083520	-1,560875	0,083520	-28,000000
			0,083616	-1,265324	0,083616	-24,000000
			0,083712	-0,966459	0,083712	-20,000000
			0,083808	-0,665457	0,083808	-15,000000
			0,083904	-0,363502	0,083904	-10,000000
			0,084000	-0,061779	0,084000	-4,000000
			0,084096	0,238527	0,084096	2,000000
			0,084192	0,536240	0,084192	8,000000
			0,084288	0,830195	0,084288	15,000000
			0,084384	1,119243	0,084384	22,000000
			0,084480	1,402257	0,084480	29,000000
			0,084576	1,678134	0,084576	37,000000
			0,084672	1,945800	0,084672	45,000000
			0,084768	2,204214	0,084768	54,000000
			0,084864	2,452375	0,084864	62,000000
			0,084960	2,689322	0,084960	71,000000
			0,085056	2,914137	0,085056	80,000000
			0,085152	3,125954	0,085152	89,000000
			0,085248	3,323956	0,085248	98,000000
			0,085344	3,507384	0,085344	107,000000
			0,085440	3,675533	0,085440	116,000000
			0,085536	3,827761	0,085536	125,000000
			0,085632	3,963489	0,085632	133,000000
			0,085728	4,082202	0,085728	141,000000
			0,085824	4,183453	0,085824	149,000000
			0,085920	4,266861	0,085920	156,000000
			0,086016	4,332118	0,086016	163,000000
			0,086112	4,378985	0,086112	169,000000
			0,086208	4,407297	0,086208	174,000000
			0,086304	4,416959	0,086304	178,000000
			0,086400	4,407950	0,086400	181,000000
			0,086496	4,380322	0,086496	184,000000
			0,086592	4,334197	0,086592	185,000000
			0,086688	4,269771	0,086688	185,000000
			0,086784	4,187310	0,086784	183,000000
			0,086880	4,087150	0,086880	180,000000
			0,086976	3,969695	0,086976	175,000000
			0,087072	3,835416	0,087072	169,000000
			0,087168	3,684849	0,087168	160,000000
			0,087264	3,518590	0,087264	150,000000
			0,087360	3,337300	0,087360	138,000000
			0,087456	3,141693	0,087456	124,000000
			0,087552	2,932540	0,087552	108,000000
			0,087648	2,710662	0,087648	89,000000
			0,087744	2,476931	0,087744	68,000000
			0,087840	2,232262	0,087840	45,000000
			0,087936	1,977612	0,087936	20,000000
			0,088032	1,713975	0,088032	-8,000000
			0,088128	1,442378	0,088128	-38,000000
			0,088224	1,163881	0,088224	-71,000000
			0,088320	0,879567	0,088320	-106,000000
			0,088416	0,590541	0,088416	-144,000000
			0,088512	0,297924	0,088512	-184,000000
			0,088608	0,002852	0,088608	-225,000000
			0,088704	-0,293531	0,088704	-269,000000
			0,088800	-0,590079	0,088800	-315,000000
			0,088896	-0,885644	0,088896	-363,000000
			0,088992	-1,179084	0,088992	-413,000000
			0,089088	-1,469266	0,089088	-463,000000
			0,089184	-1,755070	0,089184	-515,000000
			0,089280	-2,035394	0,089280	-568,000000
			0,089376	-2,309158	0,089376	-621,000000
			0,089472	-2,575309	0,089472	-675,000000
			0,089568	-2,832822	0,089568	-728,000000
			0,089664	-3,080709	0,089664	-781,000000
			0,089760	-3,318016	0,089760	-832,000000
			0,089856	-3,543832	0,089856	-882,000000
			0,089952	-3,757293	0,089952	-930,000000
			0,090048	-3,957580	0,090048	-975,000000
			0,090144	-4,143925	0,090144	-1017,000000
			0,090240	-4,315617	0,090240	-1055,000000
			0,090336	-4,471997	0,090336	-1088,000000
			0,090432	-4,612470	0,090432	-1115,000000
			0,090528	-4,736499	0,090528	-1136,000000
			0,090624	-4,843611	0,090624	-1150,000000
			0,090720	-4,933398	0,090720	-1156,000000
			0,090816	-5,005520	0,090816	-1154,000000
			0,090912	-5,059702	0,090912	-1141,000000
			0,091008	-5,095739	0,091008	-1117,000000
			0,091104	-5,113497	0,091104	-1082,000000
			0,091200	-5,112910	0,091200	-1034,000000
			0,091296	-5,093982	0,091296	-972,000000
			0,091392	-5,056787	0,091392	-895,000000
			0,091488	-5,001470	0,091488	-803,000000
			0,091584	-4,928245	0,091584	-693,000000
			0,091680	-4,837391	0,091680	-566,000000
			0,091776	-4,729258	0,091776	-420,000000
			0,091872	-4,604259	0,091872	-253,000000
			0,091968	-4,462873	0,091968	-66,000000
			0,092064	-4,305640	0,092064	142,000000
			0,092160	-4,133160	0,092160	374,000000
			0,092256	-3,946092	0,092256	628,000000
			0,092352	-3,745147	0,092352	906,000000
			0,092448	-3,531093	0,092448	1208,000000
			0,092544	-3,304745	0,092544	1535,000000
			0,092640	-3,066964	0,092640	1887,000000
			0,092736	-2,818656	0,092736	2264,000000
			0,092832	-2,560764	0,092832	2665,000000
			0,092928	-2,294269	0,092928	3090,000000
			0,093024	-2,020185	0,093024	3539,000000
			0,093120	-1,739552	0,093120	4010,000000
			0,093216	-1,453437	0,093216	4502,000000
			0,093312	-1,162927	0,093312	5014,000000
			0,093408	-0,869123	0,093408	5543,000000
			0,093504	-0,573141	0,093504	6088,000000
			0,093600	-0,276104	0,093600	6644,000000
			0,093696	0,020861	0,093696	7209,000000
			0,093792	0,316628	0,093792	7779,000000
			0,093888	0,610077	0,093888	8348,000000
			0,093984	0,900094	0,093984	8913,000000
			0,094080	1,185581	0,094080	9466,000000
			0,094176	1,465455	0,094176	10001,000000
			0,094272	1,738658	0,094272	10510,000000
			0,094368	2,004153	0,094368	10985,000000
			0,094464	2,260935	0,094464	11417,000000
			0,094560	2,508033	0,094560	11795,000000
			0,094656	2,744510	0,094656	12108,000000
			0,094752	2,969472	0,094752	12343,000000
			0,094848	3,182067	0,094848	12487,000000
			0,094944	3,381491	0,094944	12523,000000
			0,095040	3,566988	0,095040	12436,000000
			0,095136	3,737857	0,095136	12208,000000
			0,095232	3,893452	0,095232	11819,000000
			0,095328	4,033184	0,095328	11247,000000
			0,095424	4,156524	0,095424	10471,000000
			0,095520	4,263005	0,095520	9466,000000
			0,095616	4,352225	0,095616	8204,000000
			0,095712	4,423847	0,095712	6658,000000
			0,095808	4,477599	0,095808	4797,000000
			0,095904	4,513279	0,095904	2588,000000

