LabVIEW Measurement	
Writer_Version	2
Reader_Version	2
Separator	Tab
Decimal_Separator	,
Multi_Headings	Yes
X_Columns	No
Time_Pref	Relative
Operator	Laboratoire
Date	2019/01/25
Time	14:32:37,7853977166862460014
***End_of_Header***	
	
Channels	6						
Samples	75	75	1000	1000	1000	1000	
Date	2019/01/25	2019/01/25	2019/01/25	2019/01/25	2019/01/25	2019/01/25	
Time	14:32:37,9530682563781738282	14:32:37,7853977166862460014	14:32:37,9530682563781738282	14:32:37,9530682563781738282	14:32:37,9530682563781738282	14:32:37,9530682563781738282	
Y_Unit_Label		Volts					
X_Dimension	Time	Time	Time	Time	Time	Time	
X0	0,0000000000000000E+0	0,0000000000000000E+0	0,0000000000000000E+0	0,0000000000000000E+0	0,0000000000000000E+0	0,0000000000000000E+0	
Delta_X	1,000000	0,001333	1,000000	1,000000	1,000000	1,000000	
***End_of_Header***							
X_Value	Untitled	Tension	Untitled 1	Untitled 2	Untitled 3	Untitled 4	Comment
	0,000000	0,257438	0,000000	0,257438	0,000000	0,000000
	0,001333	3,656200	9,866667E-5	0,512375	9,866667E-5	2,147484E+9
	0,002667	4,428762	0,000197	0,772888	0,000197	2,147484E+9
	0,004000	1,983591	0,000296	1,038185	0,000296	2,147484E+9
	0,005333	-1,988855	0,000395	1,307147	0,000395	2,147484E+9
	0,006667	-4,933769	0,000493	1,578348	0,000493	2,147484E+9
	0,008000	-4,801184	0,000592	1,850086	0,000592	2,147484E+9
	0,009333	-1,690539	0,000691	2,120420	0,000691	2,147484E+9
	0,010667	2,248761	0,000789	2,387224	0,000789	2,147484E+9
	0,012000	4,495054	0,000888	2,648241	0,000888	2,147484E+9
	0,013333	3,470071	0,000987	2,901147	0,000987	2,147484E+9
	0,014667	-0,056176	0,001085	3,143610	0,001085	2,147484E+9
	0,016000	-3,829745	0,001184	3,373357	0,001184	2,147484E+9
	0,017333	-5,214237	0,001283	3,588230	0,001283	2,147484E+9
	0,018667	-3,429441	0,001381	3,786242	0,001381	-2,147484E+9
	0,020000	0,458865	0,001480	3,965620	0,001480	-2,147484E+9
	0,021333	3,770937	0,001579	4,124850	0,001579	-2,147484E+9
	0,022667	4,375218	0,001677	4,262698	0,001677	-2,147484E+9
	0,024000	1,802562	0,001776	4,378229	0,001776	-2,147484E+9
	0,025333	-2,177534	0,001875	4,470816	0,001875	-2,147484E+9
	0,026667	-5,012810	0,001973	4,540132	0,001973	-2,147484E+9
	0,028000	-4,706845	0,002072	4,586135	0,002072	-2,147484E+9
	0,029333	-1,494212	0,002171	4,609049	0,002171	-2,147484E+9
	0,030667	2,419591	0,002269	4,609329	0,002269	-2,147484E+9
	0,032000	4,530750	0,002368	4,587626	0,002368	-2,147484E+9
	0,033333	3,337486	0,002467	4,544747	0,002467	-2,147484E+9
	0,034667	-0,267802	0,002565	4,481614	0,002565	-2,147484E+9
	0,036000	-3,975078	0,002664	4,399221	0,002664	-2,147484E+9
	0,037333	-5,214237	0,002763	4,298595	0,002763	2,147484E+9
	0,038667	-3,261160	0,002861	4,180764	0,002861	2,147484E+9
	0,040000	0,660292	0,002960	4,046721	0,002960	2,147484E+9
	0,041333	3,878025	0,003059	3,897401	0,003059	2,147484E+9
	0,042667	4,308925	0,003157	3,733671	0,003157	2,147484E+9
	0,044000	1,611334	0,003256	3,556311	0,003256	2,147484E+9
	0,045333	-2,371312	0,003355	3,366020	0,003355	2,147484E+9
	0,046667	-5,084202	0,003453	3,163414	0,003453	2,147484E+9
	0,048000	-4,599757	0,003552	2,949045	0,003552	2,147484E+9
	0,049333	-1,292785	0,003651	2,723411	0,003651	2,147484E+9
	0,050667	2,587872	0,003749	2,486980	0,003749	2,147484E+9
	0,052000	4,563896	0,003848	2,240214	0,003848	2,147484E+9
	0,053333	3,199802	0,003947	1,983591	0,003947	2,147484E+9
	0,054667	-0,476878	0,004045	1,717632	0,004045	-2,147484E+9
	0,056000	-4,117862	0,004144	1,442922	0,004144	-2,147484E+9
	0,057333	-5,214237	0,004243	1,160129	0,004243	-2,147484E+9
	0,058667	-3,090329	0,004341	0,870024	0,004341	-2,147484E+9
	0,060000	0,854070	0,004440	0,573485	0,004440	-2,147484E+9
	0,061333	3,977463	0,004539	0,271510	0,004539	-2,147484E+9
	0,062667	4,237534	0,004637	-0,034789	0,004637	-2,147484E+9
	0,064000	1,425205	0,004736	-0,344189	0,004736	-2,147484E+9
	0,065333	-2,559990	0,004835	-0,655366	0,004835	-2,147484E+9
	0,066667	-5,145395	0,004933	-0,966911	0,004933	-2,147484E+9
	0,068000	-4,490119	0,005032	-1,277350	0,005032	-2,147484E+9
	0,069333	-1,091358	0,005131	-1,585167	0,005131	-2,147484E+9
	0,070667	2,751053	0,005229	-1,888825	0,005229	-2,147484E+9
	0,072000	4,589393	0,005328	-2,186793	0,005328	-2,147484E+9
	0,073333	3,057018	0,005427	-2,477566	0,005427	2,147484E+9
	0,074667	-0,683404	0,005525	-2,759694	0,005525	2,147484E+9
	0,076000	-4,245347	0,005624	-3,031797	0,005624	2,147484E+9
	0,077333	-5,214237	0,005723	-3,292585	0,005723	2,147484E+9
	0,078667	-2,916949	0,005821	-3,540867	0,005821	2,147484E+9
	0,080000	1,047848	0,005920	-3,775566	0,005920	2,147484E+9
	0,081333	4,071802	0,006019	-3,995717	0,006019	2,147484E+9
	0,082667	4,155943	0,006117	-4,200477	0,006117	2,147484E+9
	0,084000	1,228877	0,006216	-4,389111	0,006216	2,147484E+9
	0,085333	-2,748668	0,006315	-4,560998	0,006315	2,147484E+9
	0,086667	-5,204038	0,006413	-4,715611	0,006413	2,147484E+9
	0,088000	-4,367733	0,006512	-4,852516	0,006512	2,147484E+9
	0,089333	-0,882282	0,006611	-4,971356	0,006611	2,147484E+9
	0,090667	2,911685	0,006709	-5,071840	0,006709	-1,716955E+9
	0,092000	4,614890	0,006808	-5,153734	0,006808	-2,147484E+9
	0,093333	2,904036	0,006907	-5,216852	0,006907	-2,147484E+9
	0,094667	-0,897580	0,007005	-5,261047	0,007005	-2,147484E+9
	0,096000	-4,375383	0,007104	-5,286206	0,007104	-2,147484E+9
	0,097333	-5,198938	0,007203	-5,292252	0,007203	-2,147484E+9
	0,098667	-2,735920	0,007301	-5,279140	0,007301	-2,147484E+9
			0,007400	-5,246862	0,007400	-2,147484E+9
			0,007499	-5,195453	0,007499	-2,147484E+9
			0,007597	-5,125001	0,007597	-2,147484E+9
			0,007696	-5,035649	0,007696	-1,825023E+9
			0,007795	-4,927612	0,007795	-1,083863E+9
			0,007893	-4,801184	0,007893	-4,862350E+8
			0,007992	-4,656744	0,007992	-3,095073E+7
			0,008091	-4,494768	0,008091	2,926501E+8
			0,008189	-4,315833	0,008189	5,011052E+8
			0,008288	-4,120619	0,008288	6,139315E+8
			0,008387	-3,909910	0,008387	6,514045E+8
			0,008485	-3,684592	0,008485	6,329575E+8
			0,008584	-3,445648	0,008584	5,761180E+8
			0,008683	-3,194149	0,008683	4,958900E+8
			0,008781	-2,931240	0,008781	4,044888E+8
			0,008880	-2,658134	0,008880	3,113398E+8
			0,008979	-2,376091	0,008979	2,232632E+8
			0,009077	-2,086405	0,009077	1,447761E+8
			0,009176	-1,790390	0,009176	7,845935E+7
			0,009275	-1,489361	0,009275	2,534390E+7
			0,009373	-1,184625	0,009373	-1,471228E+7
			0,009472	-0,877465	0,009472	-4,267977E+7
			0,009571	-0,569129	0,009571	-6,005802E+7
			0,009669	-0,260829	0,009669	-6,862695E+7
			0,009768	0,046271	0,009768	-7,025124E+7
			0,009867	0,351056	0,009867	-6,673458E+7
			0,009965	0,652453	0,009965	-5,971912E+7
			0,010064	0,949437	0,010064	-5,062361E+7
			0,010163	1,241021	0,010163	-4,061326E+7
			0,010261	1,526248	0,010261	-3,059437E+7
			0,010360	1,804189	0,010360	-2,122691E+7
			0,010459	2,073932	0,010459	-1,294952E+7
			0,010557	2,334576	0,010557	-6011653,000000
			0,010656	2,585224	0,010656	-508963,000000
			0,010755	2,824983	0,010755	3581203,000000
			0,010853	3,052957	0,010853	6366472,000000
			0,010952	3,268248	0,010952	8009778,000000
			0,011051	3,469964	0,011051	8704204,000000
			0,011149	3,657219	0,011149	8652698,000000
			0,011248	3,829143	0,011248	8052585,000000
			0,011347	3,984893	0,011347	7084577,000000
			0,011445	4,123667	0,011445	5905729,000000
			0,011544	4,244712	0,011544	4645741,000000
			0,011643	4,347345	0,011643	3405938,000000
			0,011741	4,430962	0,011741	2260286,000000
			0,011840	4,495054	0,011840	1257837,000000
			0,011939	4,539218	0,011939	426086,000000
			0,012037	4,563167	0,012037	-225209,000000
			0,012136	4,566739	0,012136	-700099,000000
			0,012235	4,549898	0,012235	-1012677,000000
			0,012333	4,512742	0,012333	-1183650,000000
			0,012432	4,455492	0,012432	-1237388,000000
			0,012531	4,378495	0,012531	-1199495,000000
			0,012629	4,282213	0,012629	-1094917,000000
			0,012728	4,167211	0,012728	-946569,000000
			0,012827	4,034149	0,012827	-774432,000000
			0,012925	3,883762	0,012925	-595053,000000
			0,013024	3,716851	0,013024	-421375,000000
			0,013123	3,534264	0,013123	-262838,000000
			0,013221	3,336888	0,013221	-125651,000000
			0,013320	3,125627	0,013320	-13212,000000
			0,013419	2,901400	0,013419	73425,000000
			0,013517	2,665129	0,013517	135040,000000
			0,013616	2,417734	0,013616	173759,000000
			0,013715	2,160127	0,013715	192602,000000
			0,013813	1,893217	0,013813	195087,000000
			0,013912	1,617910	0,013912	184896,000000
			0,014011	1,335112	0,014011	165616,000000
			0,014109	1,045740	0,014109	140545,000000
			0,014208	0,750726	0,014208	112561,000000
			0,014307	0,451026	0,014307	84047,000000
			0,014405	0,147632	0,014405	56867,000000
			0,014504	-0,158426	0,014504	32372,000000
			0,014603	-0,466068	0,014603	11440,000000
			0,014701	-0,774166	0,014701	-5468,000000
			0,014800	-1,081537	0,014800	-18238,000000
			0,014899	-1,386949	0,014899	-27030,000000
			0,014997	-1,689122	0,014997	-32209,000000
			0,015096	-1,986740	0,015096	-34270,000000
			0,015195	-2,278455	0,015195	-33788,000000
			0,015293	-2,562909	0,015293	-31357,000000
			0,015392	-2,838742	0,015392	-27556,000000
			0,015491	-3,104616	0,015491	-22918,000000
			0,015589	-3,359227	0,015589	-17905,000000
			0,015688	-3,601328	0,015688	-12900,000000
			0,015787	-3,829745	0,015787	-8203,000000
			0,015885	-4,043392	0,015885	-4026,000000
			0,015984	-4,241289	0,015984	-507,000000
			0,016083	-4,422571	0,016083	2286,000000
			0,016181	-4,586495	0,016181	4344,000000
			0,016280	-4,732451	0,016280	5701,000000
			0,016379	-4,859954	0,016379	6428,000000
			0,016477	-4,968652	0,016477	6615,000000
			0,016576	-5,058312	0,016576	6366,000000
			0,016675	-5,128815	0,016675	5788,000000
			0,016773	-5,180146	0,016773	4985,000000
			0,016872	-5,212376	0,016872	4052,000000
			0,016971	-5,225653	0,016971	3072,000000
			0,017069	-5,220183	0,017069	2111,000000
			0,017168	-5,196220	0,017168	1224,000000
			0,017267	-5,154048	0,017267	446,000000
			0,017365	-5,093974	0,017365	-199,000000
			0,017464	-5,016319	0,017464	-700,000000
			0,017563	-4,921410	0,017563	-1058,000000
			0,017661	-4,809577	0,017661	-1280,000000
			0,017760	-4,681159	0,017760	-1382,000000
			0,017859	-4,536501	0,017859	-1382,000000
			0,017957	-4,375967	0,017957	-1301,000000
			0,018056	-4,199944	0,018056	-1159,000000
			0,018155	-4,008857	0,018155	-978,000000
			0,018253	-3,803179	0,018253	-776,000000
			0,018352	-3,583443	0,018352	-568,000000
			0,018451	-3,350259	0,018451	-368,000000
			0,018549	-3,104320	0,018549	-187,000000
			0,018648	-2,846412	0,018648	-30,000000
			0,018747	-2,577422	0,018747	98,000000
			0,018845	-2,298343	0,018845	194,000000
			0,018944	-2,010268	0,018944	261,000000
			0,019043	-1,714392	0,019043	299,000000
			0,019141	-1,412001	0,019141	312,000000
			0,019240	-1,104464	0,019240	304,000000
			0,019339	-0,793216	0,019339	280,000000
			0,019437	-0,479740	0,019437	244,000000
			0,019536	-0,165552	0,019536	201,000000
			0,019635	0,147822	0,019635	155,000000
			0,019733	0,458865	0,019733	108,000000
			0,019832	0,766092	0,019832	64,000000
			0,019931	1,068065	0,019931	25,000000
			0,020029	1,363414	0,020029	-9,000000
			0,020128	1,650847	0,020128	-35,000000
			0,020227	1,929164	0,020227	-54,000000
			0,020325	2,197266	0,020325	-67,000000
			0,020424	2,454153	0,020424	-73,000000
			0,020523	2,698932	0,020523	-74,000000
			0,020621	2,930805	0,020621	-70,000000
			0,020720	3,149071	0,020720	-62,000000
			0,020819	3,353112	0,020819	-52,000000
			0,020917	3,542382	0,020917	-41,000000
			0,021016	3,716398	0,021016	-29,000000
			0,021115	3,874724	0,021115	-18,000000
			0,021213	4,016964	0,021213	-7,000000
			0,021312	4,142746	0,021312	2,000000
			0,021411	4,251714	0,021411	10,000000
			0,021509	4,343528	0,021509	16,000000
			0,021608	4,417852	0,021608	20,000000
			0,021707	4,474358	0,021707	23,000000
			0,021805	4,512731	0,021805	24,000000
			0,021904	4,532672	0,021904	23,000000
			0,022003	4,533908	0,022003	22,000000
			0,022101	4,516204	0,022101	20,000000
			0,022200	4,479377	0,022200	17,000000
			0,022299	4,423309	0,022299	14,000000
			0,022397	4,347961	0,022397	12,000000
			0,022496	4,253391	0,022496	9,000000
			0,022595	4,139763	0,022595	6,000000
			0,022693	4,007359	0,022693	4,000000
			0,022792	3,856587	0,022792	2,000000
			0,022891	3,687985	0,022891	1,000000
			0,022989	3,502226	0,022989	0,000000
			0,023088	3,300108	0,023088	-1,000000
			0,023187	3,082554	0,023187	-1,000000
			0,023285	2,850599	0,023285	-1,000000
			0,023384	2,605376	0,023384	-1,000000
			0,023483	2,348100	0,023483	-1,000000
			0,023581	2,080054	0,023581	0,000000
			0,023680	1,802562	0,023680	0,000000
			0,023779	1,516975	0,023779	1,000000
			0,023877	1,224650	0,023877	1,000000
			0,023976	0,926931	0,023976	2,000000
			0,024075	0,625134	0,024075	2,000000
			0,024173	0,320533	0,024173	2,000000
			0,024272	0,014350	0,024272	2,000000
			0,024371	-0,292251	0,024371	2,000000
			0,024469	-0,598169	0,024469	2,000000
			0,024568	-0,902363	0,024568	1,000000
			0,024667	-1,203850	0,024667	1,000000
			0,024765	-1,501695	0,024765	1,000000
			0,024864	-1,795003	0,024864	0,000000
			0,024963	-2,082911	0,024963	0,000000
			0,025061	-2,364571	0,025061	-1,000000
			0,025160	-2,639138	0,025160	-1,000000
			0,025259	-2,905764	0,025259	-2,000000
			0,025357	-3,163581	0,025357	-2,000000
			0,025456	-3,411700	0,025456	-3,000000
			0,025555	-3,649202	0,025555	-3,000000
			0,025653	-3,875138	0,025653	-3,000000
			0,025752	-4,088534	0,025752	-4,000000
			0,025851	-4,288393	0,025851	-4,000000
			0,025949	-4,473708	0,025949	-4,000000
			0,026048	-4,643475	0,026048	-4,000000
			0,026147	-4,796710	0,026147	-4,000000
			0,026245	-4,932463	0,026245	-5,000000
			0,026344	-5,049843	0,026344	-5,000000
			0,026443	-5,148035	0,026443	-5,000000
			0,026541	-5,226323	0,026541	-5,000000
			0,026640	-5,284103	0,026640	-5,000000
			0,026739	-5,320906	0,026739	-5,000000
			0,026837	-5,336408	0,026837	-5,000000
			0,026936	-5,330439	0,026936	-5,000000
			0,027035	-5,302993	0,027035	-5,000000
			0,027133	-5,254227	0,027133	-5,000000
			0,027232	-5,184459	0,027232	-5,000000
			0,027331	-5,094159	0,027331	-5,000000
			0,027429	-4,983943	0,027429	-5,000000
			0,027528	-4,854554	0,027528	-5,000000
			0,027627	-4,706845	0,027627	-5,000000
			0,027725	-4,541762	0,027725	-5,000000
			0,027824	-4,360324	0,027824	-5,000000
			0,027923	-4,163598	0,027923	-5,000000
			0,028021	-3,952682	0,028021	-5,000000
			0,028120	-3,728684	0,028120	-5,000000
			0,028219	-3,492708	0,028219	-4,000000
			0,028317	-3,245839	0,028317	-4,000000
			0,028416	-2,989131	0,028416	-4,000000
			0,028515	-2,723603	0,028515	-4,000000
			0,028613	-2,450233	0,028613	-3,000000
			0,028712	-2,169964	0,028712	-3,000000
			0,028811	-1,883701	0,028811	-3,000000
			0,028909	-1,592324	0,028909	-3,000000
			0,029008	-1,296696	0,029008	-2,000000
			0,029107	-0,997672	0,029107	-2,000000
			0,029205	-0,696117	0,029205	-2,000000
			0,029304	-0,392911	0,029304	-2,000000
			0,029403	-0,088967	0,029403	-1,000000
			0,029501	0,214762	0,029501	-1,000000
			0,029600	0,517274	0,029600	-1,000000
			0,029699	0,817514	0,029699	0,000000
			0,029797	1,114371	0,029797	0,000000
			0,029896	1,406681	0,029896	0,000000
			0,029995	1,693231	0,029995	0,000000
			0,030093	1,972767	0,030093	1,000000
			0,030192	2,244010	0,030192	1,000000
			0,030291	2,505664	0,030291	1,000000
			0,030389	2,756441	0,030389	2,000000
			0,030488	2,995072	0,030488	2,000000
			0,030587	3,220332	0,030587	2,000000
			0,030685	3,431055	0,030685	2,000000
			0,030784	3,626153	0,030784	3,000000
			0,030883	3,804635	0,030883	3,000000
			0,030981	3,965620	0,030981	3,000000
			0,031080	4,108348	0,031080	3,000000
			0,031179	4,232187	0,031179	4,000000
			0,031277	4,336641	0,031277	4,000000
			0,031376	4,421350	0,031376	4,000000
			0,031475	4,486086	0,031475	4,000000
			0,031573	4,530750	0,031573	4,000000
			0,031672	4,555361	0,031672	4,000000
			0,031771	4,560046	0,031771	4,000000
			0,031869	4,545030	0,031869	4,000000
			0,031968	4,510619	0,031968	5,000000
			0,032067	4,457188	0,032067	5,000000
			0,032165	4,385166	0,032165	5,000000
			0,032264	4,295027	0,032264	5,000000
			0,032363	4,187272	0,032363	5,000000
			0,032461	4,062430	0,032461	4,000000
			0,032560	3,921043	0,032560	4,000000
			0,032659	3,763666	0,032659	4,000000
			0,032757	3,590868	0,032757	4,000000
			0,032856	3,403228	0,032856	4,000000
			0,032955	3,201345	0,032955	4,000000
			0,033053	2,985841	0,033053	4,000000
			0,033152	2,757365	0,033152	4,000000
			0,033251	2,516610	0,033251	3,000000
			0,033349	2,264314	0,033349	3,000000
			0,033448	2,001270	0,033448	3,000000
			0,033547	1,728336	0,033547	3,000000
			0,033645	1,446440	0,033645	3,000000
			0,033744	1,156583	0,033744	2,000000
			0,033843	0,859840	0,033843	2,000000
			0,033941	0,557361	0,033941	2,000000
			0,034040	0,250369	0,034040	2,000000
			0,034139	-0,059853	0,034139	1,000000
			0,034237	-0,371964	0,034237	1,000000
			0,034336	-0,684580	0,034336	1,000000
			0,034435	-0,996286	0,034435	0,000000
			0,034533	-1,305653	0,034533	0,000000
			0,034632	-1,611249	0,034632	0,000000
			0,034731	-1,911660	0,034731	0,000000
			0,034829	-2,205504	0,034829	-1,000000
			0,034928	-2,491443	0,034928	-1,000000
			0,035027	-2,768202	0,035027	-1,000000
			0,035125	-3,034575	0,035125	-2,000000
			0,035224	-3,289438	0,035224	-2,000000
			0,035323	-3,531756	0,035323	-2,000000
			0,035421	-3,760586	0,035421	-3,000000
			0,035520	-3,975078	0,035520	-3,000000
			0,035619	-4,174480	0,035619	-3,000000
			0,035717	-4,358127	0,035717	-3,000000
			0,035816	-4,525444	0,035816	-4,000000
			0,035915	-4,675936	0,035915	-4,000000
			0,036013	-4,809183	0,036013	-4,000000
			0,036112	-4,924830	0,036112	-4,000000
			0,036211	-5,022582	0,036211	-4,000000
			0,036309	-5,102198	0,036309	-5,000000
			0,036408	-5,163482	0,036408	-5,000000
			0,036507	-5,206280	0,036507	-5,000000
			0,036605	-5,230477	0,036605	-5,000000
			0,036704	-5,235996	0,036704	-5,000000
			0,036803	-5,222797	0,036803	-5,000000
			0,036901	-5,190880	0,036901	-5,000000
			0,037000	-5,140288	0,037000	-5,000000
			0,037099	-5,071113	0,037099	-5,000000
			0,037197	-4,983503	0,037197	-5,000000
			0,037296	-4,877665	0,037296	-5,000000
			0,037395	-4,753876	0,037395	-5,000000
			0,037493	-4,612485	0,037493	-5,000000
			0,037592	-4,453926	0,037592	-5,000000
			0,037691	-4,278716	0,037691	-5,000000
			0,037789	-4,087460	0,037789	-5,000000
			0,037888	-3,880857	0,037888	-5,000000
			0,037987	-3,659696	0,037987	-5,000000
			0,038085	-3,424852	0,038085	-4,000000
			0,038184	-3,177288	0,038184	-4,000000
			0,038283	-2,918044	0,038283	-4,000000
			0,038381	-2,648230	0,038381	-4,000000
			0,038480	-2,369019	0,038480	-4,000000
			0,038579	-2,081634	0,038579	-3,000000
			0,038677	-1,787337	0,038677	-3,000000
			0,038776	-1,487419	0,038776	-3,000000
			0,038875	-1,183186	0,038875	-3,000000
			0,038973	-0,875949	0,038973	-2,000000
			0,039072	-0,567014	0,039072	-2,000000
			0,039171	-0,257671	0,039171	-2,000000
			0,039269	0,050813	0,039269	-2,000000
			0,039368	0,357201	0,039368	-1,000000
			0,039467	0,660292	0,039467	-1,000000
			0,039565	0,958923	0,039565	-1,000000
			0,039664	1,251973	0,039664	0,000000
			0,039763	1,538361	0,039763	0,000000
			0,039861	1,817047	0,039861	0,000000
			0,039960	2,087032	0,039960	1,000000
			0,040059	2,347355	0,040059	1,000000
			0,040157	2,597090	0,040157	1,000000
			0,040256	2,835343	0,040256	1,000000
			0,040355	3,061256	0,040355	2,000000
			0,040453	3,273999	0,040453	2,000000
			0,040552	3,472774	0,040552	2,000000
			0,040651	3,656815	0,040651	2,000000
			0,040749	3,825391	0,040749	3,000000
			0,040848	3,977806	0,040848	3,000000
			0,040947	4,113409	0,040947	3,000000
			0,041045	4,231594	0,041045	3,000000
			0,041144	4,331809	0,041144	4,000000
			0,041243	4,413561	0,041243	4,000000
			0,041341	4,476427	0,041341	4,000000
			0,041440	4,520056	0,041440	4,000000
			0,041539	4,544177	0,041539	4,000000
			0,041637	4,548609	0,041637	4,000000
			0,041736	4,533261	0,041736	4,000000
			0,041835	4,498139	0,041835	4,000000
			0,041933	4,443349	0,041933	4,000000
			0,042032	4,369095	0,042032	5,000000
			0,042131	4,275682	0,042131	5,000000
			0,042229	4,163515	0,042229	5,000000
			0,042328	4,033090	0,042328	5,000000
			0,042427	3,884995	0,042427	4,000000
			0,042525	3,719901	0,042525	4,000000
			0,042624	3,538557	0,042624	4,000000
			0,042723	3,341778	0,042723	4,000000
			0,042821	3,130441	0,042821	4,000000
			0,042920	2,905476	0,042920	4,000000
			0,043019	2,667854	0,043019	4,000000
			0,043117	2,418583	0,043117	4,000000
			0,043216	2,158699	0,043216	4,000000
			0,043315	1,889258	0,043315	3,000000
			0,043413	1,611334	0,043413	3,000000
			0,043512	1,326007	0,043512	3,000000
			0,043611	1,034367	0,043611	3,000000
			0,043709	0,737508	0,043709	2,000000
			0,043808	0,436524	0,043808	2,000000
			0,043907	0,132512	0,043907	2,000000
			0,044005	-0,173431	0,044005	2,000000
			0,044104	-0,480206	0,044104	1,000000
			0,044203	-0,786714	0,044203	1,000000
			0,044301	-1,091854	0,044301	1,000000
			0,044400	-1,394519	0,044400	0,000000
			0,044499	-1,693605	0,044499	0,000000
			0,044597	-1,988000	0,044597	0,000000
			0,044696	-2,276594	0,044696	0,000000
			0,044795	-2,558278	0,044795	-1,000000
			0,044893	-2,831946	0,044893	-1,000000
			0,044992	-3,096499	0,044992	-1,000000
			0,045091	-3,350848	0,045091	-2,000000
			0,045189	-3,593925	0,045189	-2,000000
			0,045288	-3,824684	0,045288	-2,000000
			0,045387	-4,042108	0,045387	-3,000000
			0,045485	-4,245219	0,045485	-3,000000
			0,045584	-4,433086	0,045584	-3,000000
			0,045683	-4,604831	0,045683	-3,000000
			0,045781	-4,759636	0,045781	-4,000000
			0,045880	-4,896755	0,045880	-4,000000
			0,045979	-5,015518	0,045979	-4,000000
			0,046077	-5,115337	0,046077	-4,000000
			0,046176	-5,195717	0,046176	-4,000000
			0,046275	-5,256254	0,046275	-5,000000
			0,046373	-5,296647	0,046373	-5,000000
			0,046472	-5,316694	0,046472	-5,000000
			0,046571	-5,316300	0,046571	-5,000000
			0,046669	-5,295474	0,046669	-5,000000
			0,046768	-5,254328	0,046768	-5,000000
			0,046867	-5,193082	0,046867	-5,000000
			0,046965	-5,112051	0,046965	-5,000000
			0,047064	-5,011653	0,047064	-5,000000
			0,047163	-4,892394	0,047163	-5,000000
			0,047261	-4,754870	0,047261	-5,000000
			0,047360	-4,599757	0,047360	-5,000000
			0,047459	-4,427804	0,047459	-5,000000
			0,047557	-4,239830	0,047557	-5,000000
			0,047656	-4,036710	0,047656	-5,000000
			0,047755	-3,819373	0,047755	-5,000000
			0,047853	-3,588792	0,047853	-5,000000
			0,047952	-3,345977	0,047952	-5,000000
			0,048051	-3,091965	0,048051	-5,000000
			0,048149	-2,827820	0,048149	-4,000000
			0,048248	-2,554619	0,048248	-4,000000
			0,048347	-2,273453	0,048347	-4,000000
			0,048445	-1,985416	0,048445	-4,000000
			0,048544	-1,691608	0,048544	-3,000000
			0,048643	-1,393127	0,048643	-3,000000
			0,048741	-1,091069	0,048741	-3,000000
			0,048840	-0,786525	0,048840	-3,000000
			0,048939	-0,480581	0,048939	-2,000000
			0,049037	-0,174319	0,049037	-2,000000
			0,049136	0,131184	0,049136	-2,000000
			0,049235	0,434855	0,049235	-2,000000
			0,049333	0,735623	0,049333	-1,000000
			0,049432	1,032421	0,049432	-1,000000
			0,049531	1,324181	0,049531	-1,000000
			0,049629	1,609838	0,049629	0,000000
			0,049728	1,888328	0,049728	0,000000
			0,049827	2,158589	0,049827	0,000000
			0,049925	2,419565	0,049925	1,000000
			0,050024	2,670207	0,050024	1,000000
			0,050123	2,909480	0,050123	1,000000
			0,050221	3,136364	0,050221	1,000000
			0,050320	3,349866	0,050320	2,000000
			0,050419	3,549022	0,050419	2,000000
			0,050517	3,732910	0,050517	2,000000
			0,050616	3,900654	0,050616	2,000000
			0,050715	4,051439	0,050715	3,000000
			0,050813	4,184515	0,050813	3,000000
			0,050912	4,299210	0,050912	3,000000
			0,051011	4,394938	0,051011	3,000000
			0,051109	4,471205	0,051109	4,000000
			0,051208	4,527619	0,051208	4,000000
			0,051307	4,563896	0,051307	4,000000
			0,051405	4,579860	0,051405	4,000000
			0,051504	4,575450	0,051504	4,000000
			0,051603	4,550717	0,051603	4,000000
			0,051701	4,505826	0,051701	4,000000
			0,051800	4,441049	0,051800	4,000000
			0,051899	4,356766	0,051899	5,000000
			0,051997	4,253450	0,051997	5,000000
			0,052096	4,131667	0,052096	5,000000
			0,052195	3,992063	0,052195	5,000000
			0,052293	3,835354	0,052293	5,000000
			0,052392	3,662318	0,052392	5,000000
			0,052491	3,473784	0,052491	4,000000
			0,052589	3,270619	0,052589	4,000000
			0,052688	3,053727	0,052688	4,000000
			0,052787	2,824031	0,052787	4,000000
			0,052885	2,582473	0,052885	4,000000
			0,052984	2,330008	0,052984	4,000000
			0,053083	2,067597	0,053083	4,000000
			0,053181	1,796208	0,053181	4,000000
			0,053280	1,516814	0,053280	3,000000
			0,053379	1,230394	0,053379	3,000000
			0,053477	0,937937	0,053477	3,000000
			0,053576	0,640441	0,053576	3,000000
			0,053675	0,338921	0,053675	2,000000
			0,053773	0,034409	0,053773	2,000000
			0,053872	-0,272038	0,053872	2,000000
			0,053971	-0,579339	0,053971	2,000000
			0,054069	-0,886384	0,054069	1,000000
			0,054168	-1,192035	0,054168	1,000000
			0,054267	-1,495126	0,054267	1,000000
			0,054365	-1,794462	0,054365	0,000000
			0,054464	-2,088829	0,054464	0,000000
			0,054563	-2,376994	0,054563	0,000000
			0,054661	-2,657717	0,054661	0,000000
			0,054760	-2,929759	0,054760	-1,000000
			0,054859	-3,191892	0,054859	-1,000000
			0,054957	-3,442912	0,054957	-1,000000
			0,055056	-3,681649	0,055056	-2,000000
			0,055155	-3,906986	0,055155	-2,000000
			0,055253	-4,117862	0,055253	-2,000000
			0,055352	-4,313293	0,055352	-3,000000
			0,055451	-4,492379	0,055451	-3,000000
			0,055549	-4,654312	0,055549	-3,000000
			0,055648	-4,798386	0,055648	-3,000000
			0,055747	-4,924003	0,055747	-4,000000
			0,055845	-5,030674	0,055845	-4,000000
			0,055944	-5,118024	0,055944	-4,000000
			0,056043	-5,185786	0,056043	-4,000000
			0,056141	-5,233803	0,056141	-4,000000
			0,056240	-5,262019	0,056240	-5,000000
			0,056339	-5,270475	0,056339	-5,000000
			0,056437	-5,259301	0,056437	-5,000000
			0,056536	-5,228705	0,056536	-5,000000
			0,056635	-5,178967	0,056635	-5,000000
			0,056733	-5,110431	0,056733	-5,000000
			0,056832	-5,023492	0,056832	-5,000000
			0,056931	-4,918594	0,056931	-5,000000
			0,057029	-4,796220	0,057029	-5,000000
			0,057128	-4,656890	0,057128	-5,000000
			0,057227	-4,501156	0,057227	-5,000000
			0,057325	-4,329602	0,057325	-5,000000
			0,057424	-4,142843	0,057424	-5,000000
			0,057523	-3,941527	0,057523	-5,000000
			0,057621	-3,726338	0,057621	-5,000000
			0,057720	-3,498001	0,057720	-5,000000
			0,057819	-3,257284	0,057819	-5,000000
			0,057917	-3,005004	0,057917	-5,000000
			0,058016	-2,742031	0,058016	-4,000000
			0,058115	-2,469293	0,058115	-4,000000
			0,058213	-2,187776	0,058213	-4,000000
			0,058312	-1,898526	0,058312	-4,000000
			0,058411	-1,602649	0,058411	-4,000000
			0,058509	-1,301310	0,058509	-3,000000
			0,058608	-0,995724	0,058608	-3,000000
			0,058707	-0,687156	0,058707	-3,000000
			0,058805	-0,376908	0,058805	-3,000000
			0,058904	-0,066311	0,058904	-2,000000
			0,059003	0,243286	0,059003	-2,000000
			0,059101	0,550529	0,059101	-2,000000
			0,059200	0,854070	0,059200	-2,000000
			0,059299	1,152580	0,059299	-1,000000
			0,059397	1,444764	0,059397	-1,000000
			0,059496	1,729368	0,059496	-1,000000
			0,059595	2,005194	0,059595	0,000000
			0,059693	2,271106	0,059693	0,000000
			0,059792	2,526036	0,059792	0,000000
			0,059891	2,768995	0,059891	1,000000
			0,059989	2,999069	0,059989	1,000000
			0,060088	3,215422	0,060088	1,000000
			0,060187	3,417300	0,060187	1,000000
			0,060285	3,604020	0,060285	2,000000
			0,060384	3,774975	0,060384	2,000000
			0,060483	3,929623	0,060483	2,000000
			0,060581	4,067482	0,060581	2,000000
			0,060680	4,188129	0,060680	3,000000
			0,060779	4,291190	0,060779	3,000000
			0,060877	4,376339	0,060877	3,000000
			0,060976	4,443290	0,060976	3,000000
			0,061075	4,491801	0,061075	4,000000
			0,061173	4,521668	0,061173	4,000000
			0,061272	4,532730	0,061272	4,000000
			0,061371	4,524870	0,061371	4,000000
			0,061469	4,498019	0,061469	4,000000
			0,061568	4,452163	0,061568	4,000000
			0,061667	4,387347	0,061667	4,000000
			0,061765	4,303686	0,061765	4,000000
			0,061864	4,201370	0,061864	4,000000
			0,061963	4,080671	0,061963	4,000000
			0,062061	3,941950	0,062061	5,000000
			0,062160	3,785662	0,062160	5,000000
			0,062259	3,612361	0,062259	4,000000
			0,062357	3,422700	0,062357	4,000000
			0,062456	3,217431	0,062456	4,000000
			0,062555	2,997402	0,062555	4,000000
			0,062653	2,763554	0,062653	4,000000
			0,062752	2,516909	0,062752	4,000000
			0,062851	2,258566	0,062851	4,000000
			0,062949	1,989686	0,062949	4,000000
			0,063048	1,711483	0,063048	4,000000
			0,063147	1,425205	0,063147	4,000000
			0,063245	1,132126	0,063245	3,000000
			0,063344	0,833531	0,063344	3,000000
			0,063443	0,530701	0,063443	3,000000
			0,063541	0,224903	0,063541	3,000000
			0,063640	-0,082620	0,063640	2,000000
			0,063739	-0,390658	0,063739	2,000000
			0,063837	-0,698038	0,063837	2,000000
			0,063936	-1,003628	0,063936	2,000000
			0,064035	-1,306340	0,064035	1,000000
			0,064133	-1,605125	0,064133	1,000000
			0,064232	-1,898974	0,064232	1,000000
			0,064331	-2,186910	0,064331	0,000000
			0,064429	-2,467985	0,064429	0,000000
			0,064528	-2,741268	0,064528	0,000000
			0,064627	-3,005845	0,064627	-1,000000
			0,064725	-3,260808	0,064725	-1,000000
			0,064824	-3,505254	0,064824	-1,000000
			0,064923	-3,738275	0,064923	-1,000000
			0,065021	-3,958964	0,065021	-2,000000
			0,065120	-4,166408	0,065120	-2,000000
			0,065219	-4,359699	0,065219	-2,000000
			0,065317	-4,537933	0,065317	-3,000000
			0,065416	-4,700222	0,065416	-3,000000
			0,065515	-4,845704	0,065515	-3,000000
			0,065613	-4,973555	0,065613	-3,000000
			0,065712	-5,083003	0,065712	-3,000000
			0,065811	-5,173346	0,065811	-4,000000
			0,065909	-5,243960	0,065909	-4,000000
			0,066008	-5,294323	0,066008	-4,000000
			0,066107	-5,324023	0,066107	-4,000000
			0,066205	-5,332771	0,066205	-4,000000
			0,066304	-5,320415	0,066304	-5,000000
			0,066403	-5,286939	0,066403	-5,000000
			0,066501	-5,232478	0,066501	-5,000000
			0,066600	-5,157308	0,066600	-5,000000
			0,066699	-5,061850	0,066699	-5,000000
			0,066797	-4,946662	0,066797	-5,000000
			0,066896	-4,812429	0,066896	-5,000000
			0,066995	-4,659948	0,066995	-5,000000
			0,067093	-4,490119	0,067093	-5,000000
			0,067192	-4,303925	0,067192	-6,000000
			0,067291	-4,102411	0,067291	-5,000000
			0,067389	-3,886674	0,067389	-5,000000
			0,067488	-3,657837	0,067488	-5,000000
			0,067587	-3,417037	0,067587	-5,000000
			0,067685	-3,165410	0,067685	-5,000000
			0,067784	-2,904077	0,067784	-5,000000
			0,067883	-2,634132	0,067883	-5,000000
			0,067981	-2,356640	0,067981	-5,000000
			0,068080	-2,072631	0,068080	-4,000000
			0,068179	-1,783095	0,068179	-4,000000
			0,068277	-1,488993	0,068277	-4,000000
			0,068376	-1,191254	0,068376	-3,000000
			0,068475	-0,890789	0,068475	-3,000000
			0,068573	-0,588495	0,068573	-3,000000
			0,068672	-0,285267	0,068672	-3,000000
			0,068771	0,017992	0,068771	-2,000000
			0,068869	0,320357	0,068869	-2,000000
			0,068968	0,620881	0,068968	-2,000000
			0,069067	0,918577	0,069067	-2,000000
			0,069165	1,212420	0,069165	-1,000000
			0,069264	1,501343	0,069264	-1,000000
			0,069363	1,784236	0,069363	-1,000000
			0,069461	2,059951	0,069461	-1,000000
			0,069560	2,327307	0,069560	-1,000000
			0,069659	2,585101	0,069659	-1,000000
			0,069757	2,832121	0,069757	0,000000
			0,069856	3,067159	0,069856	0,000000
			0,069955	3,289026	0,069955	0,000000
			0,070053	3,496571	0,070053	0,000000
			0,070152	3,688698	0,070152	0,000000
			0,070251	3,864382	0,070251	1,000000
			0,070349	4,022686	0,070349	1,000000
			0,070448	4,162777	0,070448	2,000000
			0,070547	4,283932	0,070547	2,000000
			0,070645	4,385555	0,070645	3,000000
			0,070744	4,467179	0,070744	3,000000
			0,070843	4,528471	0,070843	4,000000
			0,070941	4,569232	0,070941	4,000000
			0,071040	4,589393	0,071040	5,000000
			0,071139	4,589013	0,071139	5,000000
			0,071237	4,568266	0,071237	6,000000
			0,071336	4,527434	0,071336	6,000000
			0,071435	4,466898	0,071435	6,000000
			0,071533	4,387120	0,071533	6,000000
			0,071632	4,288634	0,071632	6,000000
			0,071731	4,172034	0,071731	6,000000
			0,071829	4,037961	0,071829	6,000000
			0,071928	3,887096	0,071928	5,000000
			0,072027	3,720147	0,072027	4,000000
			0,072125	3,537845	0,072125	4,000000
			0,072224	3,340942	0,072224	3,000000
			0,072323	3,130204	0,072323	2,000000
			0,072421	2,906414	0,072421	1,000000
			0,072520	2,670373	0,072520	0,000000
			0,072619	2,422901	0,072619	0,000000
			0,072717	2,164843	0,072717	-1,000000
			0,072816	1,897074	0,072816	-1,000000
			0,072915	1,620500	0,072915	-1,000000
			0,073013	1,336068	0,073013	-1,000000
			0,073112	1,044765	0,073112	0,000000
			0,073211	0,747624	0,073211	1,000000
			0,073309	0,445721	0,073309	3,000000
			0,073408	0,140180	0,073408	4,000000
			0,073507	-0,167835	0,073507	6,000000
			0,073605	-0,477119	0,073605	8,000000
			0,073704	-0,786436	0,073704	10,000000
			0,073803	-1,094525	0,073803	12,000000
			0,073901	-1,400109	0,073901	13,000000
			0,074000	-1,701903	0,074000	14,000000
			0,074099	-1,998630	0,074099	14,000000
			0,074197	-2,289025	0,074197	14,000000
			0,074296	-2,571850	0,074296	13,000000
			0,074395	-2,845905	0,074395	10,000000
			0,074493	-3,110032	0,074493	7,000000
			0,074592	-3,363128	0,074592	3,000000
			0,074691	-3,604152	0,074691	-2,000000
			0,074789	-3,832123	0,074789	-8,000000
			0,074888	-4,046135	0,074888	-14,000000
			0,074987	-4,245347	0,074987	-20,000000
			0,075085	-4,428995	0,075085	-27,000000
			0,075184	-4,596381	0,075184	-32,000000
			0,075283	-4,746880	0,075283	-37,000000
			0,075381	-4,879933	0,075381	-40,000000
			0,075480	-4,995048	0,075480	-41,000000
			0,075579	-5,091796	0,075579	-40,000000
			0,075677	-5,169808	0,075677	-36,000000
			0,075776	-5,228777	0,075776	-30,000000
			0,075875	-5,268456	0,075875	-20,000000
			0,075973	-5,288658	0,075973	-8,000000
			0,076072	-5,289260	0,076072	7,000000
			0,076171	-5,270202	0,076171	24,000000
			0,076269	-5,231494	0,076269	42,000000
			0,076368	-5,173218	0,076368	60,000000
			0,076467	-5,095534	0,076467	77,000000
			0,076565	-4,998682	0,076565	93,000000
			0,076664	-4,882991	0,076664	104,000000
			0,076763	-4,748877	0,076763	111,000000
			0,076861	-4,596851	0,076861	111,000000
			0,076960	-4,427516	0,076960	104,000000
			0,077059	-4,241571	0,077059	88,000000
			0,077157	-4,039806	0,077157	63,000000
			0,077256	-3,823097	0,077256	28,000000
			0,077355	-3,592405	0,077355	-15,000000
			0,077453	-3,348767	0,077453	-67,000000
			0,077552	-3,093283	0,077552	-124,000000
			0,077651	-2,827111	0,077651	-184,000000
			0,077749	-2,551451	0,077749	-244,000000
			0,077848	-2,267538	0,077848	-301,000000
			0,077947	-1,976625	0,077947	-348,000000
			0,078045	-1,679974	0,078045	-381,000000
			0,078144	-1,378843	0,078144	-396,000000
			0,078243	-1,074477	0,078243	-388,000000
			0,078341	-0,768101	0,078341	-351,000000
			0,078440	-0,460911	0,078440	-283,000000
			0,078539	-0,154067	0,078539	-183,000000
			0,078637	0,151302	0,078637	-49,000000
			0,078736	0,454108	0,078736	116,000000
			0,078835	0,753296	0,078835	307,000000
			0,078933	1,047848	0,078933	517,000000
			0,079032	1,336771	0,079032	736,000000
			0,079131	1,619099	0,079131	950,000000
			0,079229	1,893885	0,079229	1144,000000
			0,079328	2,160198	0,079328	1301,000000
			0,079427	2,417115	0,079427	1401,000000
			0,079525	2,663720	0,079525	1425,000000
			0,079624	2,899104	0,079624	1355,000000
			0,079723	3,122361	0,079723	1175,000000
			0,079821	3,332592	0,079821	874,000000
			0,079920	3,528907	0,079920	444,000000
			0,080019	3,710436	0,080019	-114,000000
			0,080117	3,876330	0,080117	-788,000000
			0,080216	4,025776	0,080216	-1559,000000
			0,080315	4,158007	0,080315	-2395,000000
			0,080413	4,272313	0,080413	-3252,000000
			0,080512	4,368053	0,080512	-4075,000000
			0,080611	4,444670	0,080611	-4797,000000
			0,080709	4,501700	0,080709	-5345,000000
			0,080808	4,538786	0,080808	-5639,000000
			0,080907	4,555680	0,080907	-5598,000000
			0,081005	4,552258	0,081005	-5146,000000
			0,081104	4,528517	0,081104	-4217,000000
			0,081203	4,484581	0,081203	-2763,000000
			0,081301	4,420696	0,081301	-762,000000
			0,081400	4,337229	0,081400	1776,000000
			0,081499	4,234656	0,081499	4799,000000
			0,081597	4,113559	0,081597	8208,000000
			0,081696	3,974609	0,081696	11854,000000
			0,081795	3,818558	0,081795	15530,000000
			0,081893	3,646222	0,081893	18978,000000
			0,081992	3,458470	0,081992	21891,000000
			0,082091	3,256208	0,082091	23924,000000
			0,082189	3,040367	0,082189	24706,000000
			0,082288	2,811895	0,082288	23863,000000
			0,082387	2,571745	0,082387	21041,000000
			0,082485	2,320867	0,082485	15940,000000
			0,082584	2,060207	0,082584	8349,000000
			0,082683	1,790703	0,082683	-1819,000000
			0,082781	1,513284	0,082781	-14482,000000
			0,082880	1,228877	0,082880	-29357,000000
			0,082979	0,938407	0,082979	-45920,000000
			0,083077	0,642805	0,083077	-63386,000000
			0,083176	0,343016	0,083176	-80691,000000
			0,083275	0,040003	0,083275	-96497,000000
			0,083373	-0,265242	0,083373	-109216,000000
			0,083472	-0,571695	0,083472	-117056,000000
			0,083571	-0,878290	0,083571	-118102,000000
			0,083669	-1,183924	0,083669	-110417,000000
			0,083768	-1,487448	0,083768	-92185,000000
			0,083867	-1,787674	0,083867	-61880,000000
			0,083965	-2,083377	0,083965	-18459,000000
			0,084064	-2,373301	0,084064	38424,000000
			0,084163	-2,656169	0,084163	108191,000000
			0,084261	-2,930696	0,084261	189118,000000
			0,084360	-3,195601	0,084360	278143,000000
			0,084459	-3,449618	0,084459	370702,000000
			0,084557	-3,691520	0,084557	460645,000000
			0,084656	-3,920124	0,084656	540239,000000
			0,084755	-4,134314	0,084755	600293,000000
			0,084853	-4,333050	0,084853	630427,000000
			0,084952	-4,515383	0,084952	619523,000000
			0,085051	-4,680464	0,085051	556353,000000
			0,085149	-4,827552	0,085149	430417,000000
			0,085248	-4,956019	0,085248	232974,000000
			0,085347	-5,065354	0,085347	-41749,000000
			0,085445	-5,155160	0,085445	-395194,000000
			0,085544	-5,225156	0,085544	-823038,000000
			0,085643	-5,275166	0,085643	-1313750,000000
			0,085741	-5,305118	0,085741	-1847261,000000
			0,085840	-5,315035	0,085840	-2393880,000000
			0,085939	-5,305022	0,085939	-2913626,000000
			0,086037	-5,275264	0,086037	-3356150,000000
			0,086136	-5,226011	0,086136	-3661451,000000
			0,086235	-5,157574	0,086235	-3761583,000000
			0,086333	-5,070319	0,086333	-3583549,000000
			0,086432	-4,964657	0,086432	-3053527,000000
			0,086531	-4,841046	0,086531	-2102552,000000
			0,086629	-4,699985	0,086629	-673674,000000
			0,086728	-4,542018	0,086728	1269487,000000
			0,086827	-4,367733	0,086827	3732997,000000
			0,086925	-4,177765	0,086925	6682054,000000
			0,087024	-3,972800	0,087024	1,003021E+7
			0,087123	-3,753580	0,087123	1,362913E+7
			0,087221	-3,520906	0,087221	1,725997E+7
			0,087320	-3,275643	0,087320	2,062752E+7
			0,087419	-3,018721	0,087419	2,335866E+7
			0,087517	-2,751136	0,087517	2,500671E+7
			0,087616	-2,473951	0,087616	2,506336E+7
			0,087715	-2,188291	0,087715	2,297991E+7
			0,087813	-1,895339	0,087813	1,819939E+7
			0,087912	-1,596328	0,087912	1,020068E+7
			0,088011	-1,292532	0,088011	-1444589,000000
			0,088109	-0,985253	0,088109	-1,700261E+7
			0,088208	-0,675814	0,088208	-3,649669E+7
			0,088307	-0,365537	0,088307	-5,961785E+7
			0,088405	-0,055736	0,088405	-8,563126E+7
			0,088504	0,252298	0,088504	-1,132847E+8
			0,088603	0,557311	0,088603	-1,407280E+8
			0,088701	0,858096	0,088701	-1,654534E+8
			0,088800	1,153500	0,088800	-1,842719E+8
			0,088899	1,442434	0,088899	-1,933386E+8
			0,088997	1,723874	0,088997	-1,882464E+8
			0,089096	1,996862	0,089096	-1,642029E+8
			0,089195	2,260505	0,089195	-1,163108E+8
			0,089293	2,513969	0,089293	-3,996467E+7
			0,089392	2,756472	0,089392	6,862441E+7
			0,089491	2,987276	0,089491	2,117720E+8
			0,089589	3,205676	0,089589	3,895375E+8
			0,089688	3,410993	0,089688	5,988359E+8
			0,089787	3,602557	0,089787	8,324794E+8
			0,089885	3,779706	0,089885	1,078209E+9
			0,089984	3,941776	0,089984	1,317798E+9
			0,090083	4,088094	0,090083	1,526340E+9
			0,090181	4,217983	0,090181	1,671861E+9
			0,090280	4,330760	0,090280	1,715423E+9
			0,090379	4,425745	0,090379	1,611923E+9
			0,090477	4,502269	0,090477	1,311795E+9
			0,090576	4,559690	0,090576	7,638488E+8
			0,090675	4,597410	0,090675	-8,054896E+7
			0,090773	4,614890	0,090773	-1,261753E+9
			0,090872	4,611677	0,090872	-2,147484E+9
			0,090971	4,587421	0,090971	-2,147484E+9
			0,091069	4,541898	0,091069	-2,147484E+9
			0,091168	4,475027	0,091168	-2,147484E+9
			0,091267	4,386890	0,091267	-2,147484E+9
			0,091365	4,277744	0,091365	-2,147484E+9
			0,091464	4,148028	0,091464	-2,147484E+9
			0,091563	3,998367	0,091563	-2,147484E+9
			0,091661	3,829570	0,091661	-2,147484E+9
			0,091760	3,642620	0,091760	-2,147484E+9
			0,091859	3,438661	0,091859	-2,147484E+9
			0,091957	3,218977	0,091957	-2,147484E+9
			0,092056	2,984968	0,092056	2,147484E+9
			0,092155	2,738118	0,092155	2,147484E+9
			0,092253	2,479966	0,092253	2,147484E+9
			0,092352	2,212075	0,092352	2,147484E+9
			0,092451	1,935992	0,092451	2,147484E+9
			0,092549	1,653221	0,092549	2,147484E+9
			0,092648	1,365192	0,092648	2,147484E+9
			0,092747	1,073237	0,092747	2,147484E+9
			0,092845	0,778571	0,092845	2,147484E+9
			0,092944	0,482278	0,092944	2,147484E+9
			0,093043	0,185304	0,093043	2,147484E+9
			0,093141	-0,111538	0,093141	2,147484E+9
			0,093240	-0,407560	0,093240	2,147484E+9
			0,093339	-0,702185	0,093339	-2,147484E+9
			0,093437	-0,994921	0,093437	-2,147484E+9
			0,093536	-1,285336	0,093536	-2,147484E+9
			0,093635	-1,573024	0,093635	-2,147484E+9
			0,093733	-1,857571	0,093733	-2,147484E+9
			0,093832	-2,138523	0,093832	-2,147484E+9
			0,093931	-2,415350	0,093931	-2,147484E+9
			0,094029	-2,687418	0,094029	-2,147484E+9
			0,094128	-2,953964	0,094128	-2,147484E+9
			0,094227	-3,214076	0,094227	-2,147484E+9
			0,094325	-3,466685	0,094325	-2,147484E+9
			0,094424	-3,710563	0,094424	-2,147484E+9
			0,094523	-3,944332	0,094523	-2,147484E+9
			0,094621	-4,166478	0,094621	-2,147484E+9
			0,094720	-4,375383	0,094720	2,147484E+9
			0,094819	-4,569357	0,094819	2,147484E+9
			0,094917	-4,746685	0,094917	2,147484E+9
			0,095016	-4,905669	0,095016	2,147484E+9
			0,095115	-5,044686	0,095115	2,147484E+9
			0,095213	-5,162240	0,095213	2,147484E+9
			0,095312	-5,257015	0,095312	2,147484E+9
			0,095411	-5,327924	0,095411	2,147484E+9
			0,095509	-5,374158	0,095509	2,147484E+9
			0,095608	-5,395216	0,095608	2,147484E+9
			0,095707	-5,390939	0,095707	2,147484E+9
			0,095805	-5,361526	0,095805	2,147484E+9
			0,095904	-5,307534	0,095904	2,147484E+9
			0,096003	-5,229877	0,096003	-2,147484E+9
			0,096101	-5,129800	0,096101	-2,147484E+9
			0,096200	-5,008852	0,096200	-2,147484E+9
			0,096299	-4,868837	0,096299	-2,147484E+9
			0,096397	-4,711765	0,096397	-2,147484E+9
			0,096496	-4,539790	0,096496	-2,147484E+9
			0,096595	-4,355144	0,096595	-2,147484E+9
			0,096693	-4,160069	0,096693	-2,147484E+9
			0,096792	-3,956748	0,096792	-2,147484E+9
			0,096891	-3,747242	0,096891	-2,147484E+9
			0,096989	-3,533425	0,096989	-2,147484E+9
			0,097088	-3,316936	0,097088	-2,147484E+9
			0,097187	-3,099134	0,097187	-2,147484E+9
			0,097285	-2,881070	0,097285	-2,147484E+9
			0,097384	-2,663469	0,097384	2,147484E+9
			0,097483	-2,446726	0,097483	2,147484E+9
			0,097581	-2,230916	0,097581	2,147484E+9
			0,097680	-2,015822	0,097680	2,147484E+9
			0,097779	-1,800965	0,097779	2,147484E+9
			0,097877	-1,585654	0,097877	2,147484E+9
			0,097976	-1,369046	0,097976	2,147484E+9
			0,098075	-1,150202	0,098075	2,147484E+9
			0,098173	-0,928158	0,098173	2,147484E+9
			0,098272	-0,701989	0,098272	2,147484E+9
			0,098371	-0,470879	0,098371	2,147484E+9
			0,098469	-0,234178	0,098469	2,147484E+9
			0,098568	0,008540	0,098568	2,147484E+9

