LabVIEW Measurement	
Writer_Version	2
Reader_Version	2
Separator	Tab
Decimal_Separator	,
Multi_Headings	Yes
X_Columns	No
Time_Pref	Relative
Operator	Laboratoire
Date	2019/01/25
Time	14:31:37,7381298833529367062
***End_of_Header***	
	
Channels	6						
Samples	200	200	1000	1000	1000	1000	
Date	2019/01/25	2019/01/25	2019/01/25	2019/01/25	2019/01/25	2019/01/25	
Time	14:31:38,0896444320678710938	14:31:37,7381298833529367062	14:31:38,0896444320678710938	14:31:38,0896444320678710938	14:31:38,0896444320678710938	14:31:38,0896444320678710938	
Y_Unit_Label		Volts					
X_Dimension	Time	Time	Time	Time	Time	Time	
X0	0,0000000000000000E+0	0,0000000000000000E+0	0,0000000000000000E+0	0,0000000000000000E+0	0,0000000000000000E+0	0,0000000000000000E+0	
Delta_X	1,000000	0,000500	1,000000	1,000000	1,000000	1,000000	
***End_of_Header***							
X_Value	Untitled	Tension	Untitled 1	Untitled 2	Untitled 3	Untitled 4	Comment
	0,000000	-1,784878	0,000000	-1,784878	0,000000	-2,000000
	0,000500	-0,257603	9,950000E-5	-1,593304	9,950000E-5	-2,147484E+9
	0,001000	1,241626	0,000199	-1,329252	0,000199	-2,147484E+9
	0,001500	2,590422	0,000299	-1,002710	0,000299	-2,147484E+9
	0,002000	3,656200	0,000398	-0,636087	0,000398	-2,147484E+9
	0,002500	4,342072	0,000498	-0,257603	0,000498	-2,147484E+9
	0,003000	4,602142	0,000597	0,106479	0,000597	2,147484E+9
	0,003500	4,273229	0,000697	0,438461	0,000697	2,147484E+9
	0,004000	3,531264	0,000796	0,732786	0,000796	2,147484E+9
	0,004500	2,411942	0,000896	0,995738	0,000896	2,147484E+9
	0,005000	1,037649	0,000995	1,241626	0,000995	2,147484E+9
	0,005500	-0,481977	0,001094	1,486891	0,001094	-2,147484E+9
	0,006000	-1,993955	0,001194	1,744146	0,001194	-2,147484E+9
	0,006500	-3,355499	0,001294	2,018016	0,001294	-2,147484E+9
	0,007000	-4,436576	0,001393	2,303993	0,001393	-2,147484E+9
	0,007500	-5,117348	0,001493	2,590422	0,001493	-2,147484E+9
	0,008000	-5,214237	0,001592	2,862748	0,001592	2,147484E+9
	0,008500	-5,010260	0,001692	3,108437	0,001692	2,147484E+9
	0,009000	-4,240248	0,001791	3,320870	0,001791	2,147484E+9
	0,009500	-3,085230	0,001891	3,500979	0,001891	2,147484E+9
	0,010000	-1,685440	0,001990	3,656200	0,001990	2,147484E+9
	0,010500	-0,150515	0,002090	3,797265	0,002090	-2,147484E+9
	0,011000	1,338515	0,002189	3,934063	0,002189	-2,147484E+9
	0,011500	2,674562	0,002289	4,072035	0,002289	-2,147484E+9
	0,012000	3,714843	0,002388	4,210302	0,002388	-2,147484E+9
	0,012500	4,372668	0,002488	4,342072	0,002488	-2,147484E+9
	0,013000	4,589393	0,002587	4,457058	0,002587	2,147484E+9
	0,013500	4,234984	0,002687	4,544958	0,002687	2,147484E+9
	0,014000	3,464972	0,002786	4,598738	0,002786	2,147484E+9
	0,014500	2,325252	0,002886	4,616614	0,002886	2,147484E+9
	0,015000	0,935661	0,002985	4,602142	0,002985	2,147484E+9
	0,015500	-0,586515	0,003084	4,562495	0,003084	-2,147484E+9
	0,016000	-2,090844	0,003184	4,505681	0,003184	-2,147484E+9
	0,016500	-3,442189	0,003284	4,437733	0,003284	-2,147484E+9
	0,017000	-4,495219	0,003383	4,360872	0,003383	-2,147484E+9
	0,017500	-5,150494	0,003483	4,273229	0,003483	-2,147484E+9
	0,018000	-5,214237	0,003582	4,170112	0,003582	2,147484E+9
	0,018500	-4,972014	0,003682	4,046241	0,003682	2,147484E+9
	0,019000	-4,176505	0,003781	3,898074	0,003781	2,147484E+9
	0,019500	-3,001090	0,003881	3,725342	0,003881	2,147484E+9
	0,020000	-1,586001	0,003980	3,531264	0,003980	2,147484E+9
	0,020500	-0,043427	0,004080	3,321422	0,004080	-2,147484E+9
	0,021000	1,437953	0,004179	3,101780	0,004179	-2,147484E+9
	0,021500	2,756153	0,004279	2,876640	0,004279	-2,147484E+9
	0,022000	3,773487	0,004378	2,647304	0,004378	-2,147484E+9
	0,022500	4,403265	0,004478	2,411942	0,004478	-2,147484E+9
	0,023000	4,576645	0,004577	2,166676	0,004577	2,147484E+9
	0,023500	4,194188	0,004677	1,907444	0,004677	2,147484E+9
	0,024000	3,401229	0,004776	1,631917	0,004776	2,147484E+9
	0,024500	2,238562	0,004876	1,340743	0,004876	2,147484E+9
	0,025000	0,841321	0,004975	1,037649	0,004975	2,147484E+9
	0,025500	-0,693603	0,005075	0,728383	0,005075	-2,147484E+9
	0,026000	-2,190282	0,005174	0,418910	0,005174	-2,147484E+9
	0,026500	-3,523780	0,005274	0,113550	0,005274	-2,147484E+9
	0,027000	-4,551312	0,005373	-0,186239	0,005373	-2,147484E+9
	0,027500	-5,178541	0,005472	-0,481977	0,005472	-2,147484E+9
	0,028000	-5,214237	0,005572	-0,777139	0,005572	2,147484E+9
	0,028500	-4,928669	0,005672	-1,075383	0,005672	2,147484E+9
	0,029000	-4,107663	0,005771	-1,378704	0,005771	2,147484E+9
	0,029500	-2,911850	0,005871	-1,686205	0,005871	2,147484E+9
	0,030000	-1,489112	0,005970	-1,993955	0,005970	2,147484E+9
	0,030500	0,061111	0,006070	-2,295995	0,006070	-2,147484E+9
	0,031000	1,534842	0,006169	-2,586136	0,006169	-2,147484E+9
	0,031500	2,835194	0,006269	-2,859872	0,006269	-2,147484E+9
	0,032000	3,829580	0,006368	-3,115727	0,006368	-2,147484E+9
	0,032500	4,428762	0,006468	-3,355499	0,006468	-2,147484E+9
	0,033000	4,561347	0,006567	-3,583325	0,006567	2,147484E+9
	0,033500	4,153393	0,006667	-3,803852	0,006667	2,147484E+9
	0,034000	3,332387	0,006766	-4,020182	0,006766	2,147484E+9
	0,034500	2,151872	0,006866	-4,232301	0,006866	2,147484E+9
	0,035000	0,739333	0,006965	-4,436576	0,006965	2,147484E+9
	0,035500	-0,798141	0,007065	-4,626498	0,007065	-2,147484E+9
	0,036000	-2,284621	0,007164	-4,794454	0,007164	-2,147484E+9
	0,036500	-3,602821	0,007264	-4,933923	0,007264	-2,147484E+9
	0,037000	-4,607406	0,007363	-5,041394	0,007363	-2,147484E+9
	0,037500	-5,204038	0,007463	-5,117348	0,007463	-2,147484E+9
	0,038000	-5,214237	0,007562	-5,166024	0,007562	2,147484E+9
	0,038500	-4,887874	0,007662	-5,194050	0,007662	2,147484E+9
	0,039000	-4,038821	0,007761	-5,208406	0,007761	2,147484E+9
	0,039500	-2,825160	0,007861	-5,214397	0,007861	2,147484E+9
	0,040000	-1,389674	0,007960	-5,214237	0,007960	2,147484E+9
	0,040500	0,165649	0,008060	-5,206662	0,008060	-2,147484E+9
	0,041000	1,626632	0,008159	-5,187608	0,008159	-2,147484E+9
	0,041500	2,914235	0,008259	-5,151645	0,008259	-2,147484E+9
	0,042000	3,880574	0,008358	-5,093663	0,008358	-2,147484E+9
	0,042500	4,454259	0,008457	-5,010260	0,008457	-2,147484E+9
	0,043000	4,546048	0,008557	-4,900440	0,008557	2,147484E+9
	0,043500	4,112598	0,008657	-4,765511	0,008657	2,147484E+9
	0,044000	3,263545	0,008756	-4,608331	0,008756	2,147484E+9
	0,044500	2,062632	0,008856	-4,432264	0,008856	2,147484E+9
	0,045000	0,642444	0,008955	-4,240248	0,008955	2,147484E+9
	0,045500	-0,902679	0,009055	-4,034268	0,009055	-2,147484E+9
	0,046000	-2,381510	0,009154	-3,815337	0,009154	-2,147484E+9
	0,046500	-3,684411	0,009254	-3,583876	0,009254	-2,147484E+9
	0,047000	-4,660950	0,009353	-3,340259	0,009353	-2,147484E+9
	0,047500	-5,214237	0,009453	-3,085230	0,009453	-2,147484E+9
	0,048000	-5,214237	0,009552	-2,820032	0,009552	2,147484E+9
	0,048500	-4,844529	0,009652	-2,546214	0,009652	2,147484E+9
	0,049000	-3,969979	0,009751	-2,265247	0,009751	2,147484E+9
	0,049500	-2,733370	0,009850	-1,978167	0,009850	2,147484E+9
	0,050000	-1,290235	0,009950	-1,685440	0,009950	2,147484E+9
	0,050500	0,262538	0,010050	-1,387141	0,010050	-2,147484E+9
	0,051000	1,718421	0,010149	-1,083390	0,010149	-2,147484E+9
	0,051500	2,988176	0,010249	-0,774851	0,010249	-2,147484E+9
	0,052000	3,931568	0,010348	-0,463079	0,010348	-2,147484E+9
	0,052500	4,474656	0,010448	-0,150515	0,010448	-2,147484E+9
	0,053000	4,530750	0,010547	0,159899	0,010547	2,147484E+9
	0,053500	4,066703	0,010647	0,465368	0,010647	2,147484E+9
	0,054000	3,194703	0,010746	0,763916	0,010746	2,147484E+9
	0,054500	1,978492	0,010846	1,054803	0,010846	2,147484E+9
	0,055000	0,545555	0,010945	1,338515	0,010945	2,147484E+9
	0,055500	-0,999568	0,011045	1,616267	0,011045	-2,147484E+9
	0,056000	-2,475850	0,011144	1,889209	0,011144	-2,147484E+9
	0,056500	-3,760903	0,011244	2,157597	0,011244	-2,147484E+9
	0,057000	-4,709394	0,011343	2,420256	0,011343	-2,147484E+9
	0,057500	-5,214237	0,011443	2,674562	0,011443	-2,147484E+9
	0,058000	-5,214237	0,011542	2,916968	0,011542	2,147484E+9
	0,058500	-4,801184	0,011642	3,143923	0,011642	2,147484E+9
	0,059000	-3,896037	0,011741	3,352854	0,011741	2,147484E+9
	0,059500	-2,641581	0,011841	3,542859	0,011841	2,147484E+9
	0,060000	-1,185697	0,011940	3,714843	0,011940	2,147484E+9
	0,060500	0,367076	0,012040	3,871024	0,012040	-2,147484E+9
	0,061000	1,812761	0,012139	4,013962	0,012139	-2,147484E+9
	0,061500	3,064668	0,012239	4,145447	0,012239	-2,147484E+9
	0,062000	3,980013	0,012338	4,265623	0,012338	-2,147484E+9
	0,062500	4,495054	0,012438	4,372668	0,012438	-2,147484E+9
	0,063000	4,512902	0,012537	4,463148	0,012537	2,147484E+9
	0,063500	4,023358	0,012637	4,532929	0,012637	2,147484E+9
	0,064000	3,120761	0,012736	4,578343	0,012736	2,147484E+9
	0,064500	1,889252	0,012836	4,597213	0,012836	2,147484E+9
	0,065000	0,441017	0,012935	4,589393	0,012935	2,147484E+9
	0,065500	-1,106656	0,013035	4,556665	0,013035	-2,147484E+9
	0,066000	-2,570189	0,013134	4,502049	0,013134	2,147484E+9
	0,066500	-3,837394	0,013234	4,428788	0,013234	-2,147484E+9
	0,067000	-4,762938	0,013333	4,339381	0,013333	2,147484E+9
	0,067500	-5,214237	0,013432	4,234984	0,013432	-2,147484E+9
	0,068000	-5,214237	0,013532	4,115365	0,013532	-2,147484E+9
	0,068500	-4,752739	0,013632	3,979396	0,013632	-2,147484E+9
	0,069000	-3,822096	0,013731	3,825849	0,013731	2,147484E+9
	0,069500	-2,547241	0,013831	3,654174	0,013831	2,147484E+9
	0,070000	-1,081159	0,013930	3,464972	0,013930	-2,147484E+9
	0,070500	0,469064	0,014030	3,259973	0,014030	2,147484E+9
	0,071000	1,904550	0,014129	3,041571	0,014129	-2,147484E+9
	0,071500	3,136059	0,014229	2,812098	0,014229	-2,147484E+9
	0,072000	4,028457	0,014328	2,573153	0,014328	-2,147484E+9
	0,072500	4,515452	0,014428	2,325252	0,014428	2,147484E+9
	0,073000	4,492504	0,014527	2,067948	0,014527	2,147484E+9
	0,073500	3,974914	0,014627	1,800369	0,014627	2,147484E+9
	0,074000	3,046820	0,014726	1,521965	0,014726	-2,147484E+9
	0,074500	1,794913	0,014826	1,233163	0,014826	2,147484E+9
	0,075000	0,341579	0,014925	0,935661	0,014925	2,147484E+9
	0,075500	-1,211194	0,015025	0,632221	0,015025	2,147484E+9
	0,076000	-2,664528	0,015124	0,326046	0,015124	-2,147484E+9
	0,076500	-3,911336	0,015224	0,019948	0,015224	2,147484E+9
	0,077000	-4,806283	0,015323	-0,284351	0,015323	2,147484E+9
	0,077500	-5,214237	0,015423	-0,586515	0,015423	-2,147484E+9
	0,078000	-5,214237	0,015522	-0,887356	0,015522	-2,147484E+9
	0,078500	-4,701745	0,015622	-1,188117	0,015622	-2,147484E+9
	0,079000	-3,745605	0,015721	-1,489558	0,015721	2,147484E+9
	0,079500	-2,452902	0,015821	-1,791170	0,015821	2,147484E+9
	0,080000	-0,976621	0,015920	-2,090844	0,015920	2,147484E+9
	0,080500	0,571052	0,016020	-2,385136	0,016020	2,147484E+9
	0,081000	1,998889	0,016119	-2,670074	0,016119	-2,147484E+9
	0,081500	3,207451	0,016219	-2,942218	0,016219	-2,147484E+9
	0,082000	4,074352	0,016318	-3,199603	0,016318	-2,147484E+9
	0,082500	4,530750	0,016418	-3,442189	0,016418	2,147484E+9
	0,083000	4,472107	0,016517	-3,671638	0,016517	-2,147484E+9
	0,083500	3,921370	0,016616	-3,890440	0,016616	-2,147484E+9
	0,084000	2,972878	0,016716	-4,100683	0,016716	2,147484E+9
	0,084500	1,698024	0,016816	-4,302869	0,016816	-2,147484E+9
	0,085000	0,239590	0,016915	-4,495219	0,016915	-2,147484E+9
	0,085500	-1,315732	0,017015	-4,673730	0,017015	2,147484E+9
	0,086000	-2,756318	0,017114	-4,833019	0,017114	2,147484E+9
	0,086500	-3,982727	0,017213	-4,967710	0,017213	2,147484E+9
	0,087000	-4,854728	0,017313	-5,073939	0,017313	2,147484E+9
	0,087500	-5,214237	0,017413	-5,150494	0,017413	2,147484E+9
	0,088000	-5,214237	0,017512	-5,199212	0,017512	-2,147484E+9
	0,088500	-4,648201	0,017612	-5,224495	0,017612	-2,147484E+9
	0,089000	-3,666564	0,017711	-5,232080	0,017711	-2,147484E+9
	0,089500	-2,356013	0,017810	-5,227429	0,017810	2,147484E+9
	0,090000	-0,874632	0,017910	-5,214237	0,017910	2,147484E+9
	0,090500	0,665392	0,018010	-5,193479	0,018010	2,147484E+9
	0,091000	2,085579	0,018109	-5,163270	0,018109	-2,147484E+9
	0,091500	3,278843	0,018209	-5,119543	0,018209	-2,147484E+9
	0,092000	4,117697	0,018308	-5,057294	0,018308	-2,147484E+9
	0,092500	4,548598	0,018408	-4,972014	0,018408	-2,147484E+9
	0,093000	4,449159	0,018507	-4,860871	0,018507	2,147484E+9
	0,093500	3,872925	0,018607	-4,723329	0,018607	-2,147484E+9
	0,094000	2,896387	0,018706	-4,561100	0,018706	2,147484E+9
	0,094500	1,603684	0,018806	-4,377503	0,018806	-2,147484E+9
	0,095000	0,137602	0,018905	-4,176505	0,018905	-2,147484E+9
	0,095500	-1,417720	0,019005	-3,961762	0,019005	-2,147484E+9
	0,096000	-2,848107	0,019104	-3,735932	0,019104	2,147484E+9
	0,096500	-4,054119	0,019204	-3,500427	0,019204	2,147484E+9
	0,097000	-4,898073	0,019303	-3,255578	0,019303	-2,147484E+9
	0,097500	-5,214237	0,019402	-3,001090	0,019402	-2,147484E+9
	0,098000	-5,198938	0,019502	-2,736581	0,019502	-2,147484E+9
	0,098500	-4,594658	0,019602	-2,462020	0,019602	-2,147484E+9
	0,099000	-3,584973	0,019701	-2,177939	0,019701	-2,147484E+9
	0,099500	-2,261674	0,019801	-1,885436	0,019801	2,147484E+9
			0,019900	-1,586001	0,019900	-2,147484E+9
			0,019999	-1,281317	0,019999	2,147484E+9
			0,020099	-0,973087	0,020099	-2,147484E+9
			0,020199	-0,662966	0,020199	-2,147484E+9
			0,020298	-0,352557	0,020298	2,147484E+9
			0,020398	-0,043427	0,020398	2,147484E+9
			0,020497	0,262917	0,020497	2,147484E+9
			0,020597	0,565120	0,020597	-2,147484E+9
			0,020696	0,862103	0,020696	2,147484E+9
			0,020796	1,153161	0,020796	2,147484E+9
			0,020895	1,437953	0,020895	2,147484E+9
			0,020995	1,716360	0,020995	-2,147484E+9
			0,021094	1,988208	0,021094	2,147484E+9
			0,021194	2,252969	0,021194	-2,147484E+9
			0,021293	2,509528	0,021293	-2,147484E+9
			0,021393	2,756153	0,021393	-2,147484E+9
			0,021492	2,990693	0,021492	-2,147484E+9
			0,021592	3,210982	0,021592	-2,147484E+9
			0,021691	3,415304	0,021691	2,147484E+9
			0,021791	3,602779	0,021791	2,147484E+9
			0,021890	3,773487	0,021890	2,147484E+9
			0,021990	3,928276	0,021990	2,147484E+9
			0,022089	4,068289	0,022089	-2,147484E+9
			0,022188	4,194348	0,022188	2,147484E+9
			0,022288	4,306403	0,022288	-2,147484E+9
			0,022388	4,403265	0,022388	-2,147484E+9
			0,022487	4,482699	0,022487	-2,147484E+9
			0,022587	4,541917	0,022587	2,147484E+9
			0,022686	4,578275	0,022686	2,147484E+9
			0,022786	4,589995	0,022786	-2,147484E+9
			0,022885	4,576645	0,022885	-2,147484E+9
			0,022985	4,539230	0,022985	2,147484E+9
			0,023084	4,479866	0,023084	2,147484E+9
			0,023184	4,401147	0,023184	2,147484E+9
			0,023283	4,305414	0,023283	2,147484E+9
			0,023383	4,194188	0,023383	-2,147484E+9
			0,023482	4,067934	0,023482	2,147484E+9
			0,023582	3,926216	0,023582	-2,147484E+9
			0,023681	3,768184	0,023681	2,147484E+9
			0,023781	3,593177	0,023781	2,147484E+9
			0,023880	3,401229	0,023880	2,147484E+9
			0,023980	3,193291	0,023980	-1,172525E+9
			0,024079	2,971096	0,024079	2,753051E+8
			0,024179	2,736738	0,024179	6,512638E+8
			0,024278	2,492129	0,024278	-2,147484E+9
			0,024377	2,238562	0,024377	2,147484E+9
			0,024477	1,976536	0,024477	-8,066600E+7
			0,024577	1,705920	0,024577	7,671274E+8
			0,024676	1,426386	0,024676	4,288605E+7
			0,024776	1,137937	0,024776	-1,069550E+8
			0,024875	0,841321	0,024875	-1,310243E+9
			0,024975	0,538171	0,024975	1,849007E+8
			0,025074	0,230793	0,025074	1,310476E+7
			0,025174	-0,078291	0,025174	-4,281156E+7
			0,025273	-0,386899	0,025273	-2,147484E+9
			0,025373	-0,693603	0,025373	5,476129E+8
			0,025472	-0,997848	0,025472	1,136694E+8
			0,025572	-1,299709	0,025572	-5,183672E+7
			0,025671	-1,599385	0,025671	3,243347E+7
			0,025771	-1,896619	0,025771	7,913888E+8
			0,025870	-2,190282	0,025870	-1,127917E+8
			0,025970	-2,478300	0,025970	2,466880E+7
			0,026069	-2,757972	0,026069	5990031,000000
			0,026169	-3,026593	0,026169	-1,896506E+7
			0,026268	-3,282143	0,026268	2,648003E+8
			0,026368	-3,523780	0,026368	5568024,000000
			0,026467	-3,751925	0,026467	-6743504,000000
			0,026567	-3,967862	0,026567	-3645098,000000
			0,026666	-4,172958	0,026666	2208539,000000
			0,026766	-4,367764	0,026766	-7,192826E+7
			0,026865	-4,551312	0,026865	9002695,000000
			0,026965	-4,720892	0,026965	335831,000000
			0,027064	-4,872431	0,027064	-126333,000000
			0,027164	-5,001417	0,027164	-356159,000000
			0,027263	-5,104090	0,027263	2,831434E+7
			0,027363	-5,178541	0,027363	-2258298,000000
			0,027462	-5,225351	0,027462	-20756,000000
			0,027562	-5,247543	0,027562	-169539,000000
			0,027661	-5,249828	0,027661	36512,000000
			0,027761	-5,237341	0,027761	1479466,000000
			0,027860	-5,214237	0,027860	199110,000000
			0,027960	-5,182569	0,027960	5283,000000
			0,028059	-5,141761	0,028059	-80249,000000
			0,028159	-5,088847	0,028159	-91381,000000
			0,028258	-5,019366	0,028258	477595,000000
			0,028358	-4,928669	0,028358	245989,000000
			0,028457	-4,813223	0,028457	-42139,000000
			0,028557	-4,671546	0,028557	19239,000000
			0,028656	-4,504546	0,028656	42523,000000
			0,028756	-4,315190	0,028756	-11100,000000
			0,028855	-4,107663	0,028855	-37949,000000
			0,028955	-3,886309	0,028955	-13503,000000
			0,029054	-3,654656	0,029054	-9752,000000
			0,029154	-3,414825	0,029154	-7550,000000
			0,029253	-3,167413	0,029253	41804,000000
			0,029353	-2,911850	0,029353	-38681,000000
			0,029452	-2,647038	0,029452	-4863,000000
			0,029552	-2,372062	0,029552	3160,000000
			0,029651	-2,086733	0,029651	7648,000000
			0,029751	-1,791845	0,029751	-6348,000000
			0,029850	-1,489112	0,029850	5887,000000
			0,029950	-1,180857	0,029950	233,000000
			0,030049	-0,869596	0,030049	-548,000000
			0,030149	-0,557661	0,030149	-2902,000000
			0,030248	-0,246958	0,030248	-2692,000000
			0,030348	0,061111	0,030348	-1939,000000
			0,030447	0,365572	0,030447	-372,000000
			0,030547	0,665737	0,030547	525,000000
			0,030646	0,961045	0,030646	1296,000000
			0,030746	1,250948	0,030746	1286,000000
			0,030845	1,534842	0,030845	670,000000
			0,030945	1,812034	0,030945	347,000000
			0,031044	2,081713	0,031044	-252,000000
			0,031144	2,342918	0,031144	-570,000000
			0,031243	2,594515	0,031243	-619,000000
			0,031343	2,835194	0,031343	-479,000000
			0,031442	3,063538	0,031442	-156,000000
			0,031542	3,278154	0,031542	109,000000
			0,031641	3,477845	0,031641	274,000000
			0,031741	3,661781	0,031741	296,000000
			0,031840	3,829580	0,031840	216,000000
			0,031940	3,981266	0,031940	83,000000
			0,032039	4,117076	0,032039	-44,000000
			0,032139	4,237170	0,032139	-127,000000
			0,032238	4,341330	0,032238	-141,000000
			0,032338	4,428762	0,032338	-110,000000
			0,032437	4,498081	0,032437	-39,000000
			0,032537	4,547517	0,032537	26,000000
			0,032636	4,575296	0,032636	68,000000
			0,032736	4,580082	0,032736	78,000000
			0,032835	4,561347	0,032835	62,000000
			0,032935	4,519536	0,032935	27,000000
			0,033034	4,455975	0,033034	-6,000000
			0,033134	4,372531	0,033134	-28,000000
			0,033233	4,271147	0,033233	-34,000000
			0,033333	4,153393	0,033333	-25,000000
			0,033432	4,020180	0,033432	-8,000000
			0,033531	3,871729	0,033531	9,000000
			0,033631	3,707789	0,033631	21,000000
			0,033731	3,528020	0,033731	24,000000
			0,033830	3,332387	0,033830	19,000000
			0,033930	3,121428	0,033930	10,000000
			0,034029	2,896300	0,034029	1,000000
			0,034128	2,658590	0,034128	-6,000000
			0,034228	2,409976	0,034228	-8,000000
			0,034328	2,151872	0,034328	-6,000000
			0,034427	1,885204	0,034427	-2,000000
			0,034527	1,610402	0,034527	3,000000
			0,034626	1,327610	0,034626	7,000000
			0,034725	1,037044	0,034725	8,000000
			0,034825	0,739333	0,034825	6,000000
			0,034925	0,435727	0,034925	3,000000
			0,035024	0,128070	0,035024	0,000000
			0,035124	-0,181465	0,035124	-2,000000
			0,035223	-0,490761	0,035223	-3,000000
			0,035322	-0,798141	0,035322	-3,000000
			0,035422	-1,102578	0,035422	-2,000000
			0,035522	-1,403647	0,035522	-1,000000
			0,035621	-1,701242	0,035621	0,000000
			0,035721	-1,995143	0,035721	1,000000
			0,035820	-2,284621	0,035820	0,000000
			0,035920	-2,568245	0,035920	-1,000000
			0,036019	-2,843972	0,036019	-3,000000
			0,036119	-3,109520	0,036119	-4,000000
			0,036218	-3,362888	0,036218	-4,000000
			0,036318	-3,602821	0,036318	-4,000000
			0,036417	-3,829022	0,036417	-4,000000
			0,036517	-4,042007	0,036517	-4,000000
			0,036616	-4,242606	0,036616	-3,000000
			0,036716	-4,431265	0,036716	-3,000000
			0,036815	-4,607406	0,036815	-4,000000
			0,036915	-4,769084	0,036915	-4,000000
			0,037014	-4,913117	0,037014	-5,000000
			0,037114	-5,035707	0,037114	-5,000000
			0,037213	-5,133390	0,037213	-5,000000
			0,037313	-5,204038	0,037313	-5,000000
			0,037412	-5,247581	0,037412	-5,000000
			0,037512	-5,266181	0,037512	-5,000000
			0,037611	-5,263775	0,037611	-5,000000
			0,037711	-5,245062	0,037711	-5,000000
			0,037810	-5,214237	0,037810	-5,000000
			0,037910	-5,173823	0,037910	-5,000000
			0,038009	-5,123970	0,038009	-5,000000
			0,038109	-5,062433	0,038109	-5,000000
			0,038208	-4,985242	0,038208	-5,000000
			0,038308	-4,887874	0,038308	-5,000000
			0,038407	-4,766575	0,038407	-5,000000
			0,038506	-4,619452	0,038506	-5,000000
			0,038606	-4,447016	0,038606	-5,000000
			0,038706	-4,252042	0,038706	-4,000000
			0,038805	-4,038821	0,038805	-4,000000
			0,038905	-3,812053	0,038905	-4,000000
			0,039004	-3,575719	0,039004	-4,000000
			0,039103	-3,332274	0,039103	-4,000000
			0,039203	-3,082374	0,039203	-4,000000
			0,039303	-2,825160	0,039303	-3,000000
			0,039402	-2,558986	0,039402	-3,000000
			0,039502	-2,282318	0,039502	-3,000000
			0,039601	-1,994518	0,039601	-3,000000
			0,039700	-1,696288	0,039700	-2,000000
			0,039800	-1,389674	0,039800	-2,000000
			0,039900	-1,077665	0,039900	-2,000000
			0,039999	-0,763571	0,039999	-1,000000
			0,040099	-0,450366	0,040099	-1,000000
			0,040198	-0,140226	0,040198	-1,000000
			0,040297	0,165649	0,040297	-1,000000
			0,040397	0,466891	0,040397	0,000000
			0,040497	0,763620	0,040497	0,000000
			0,040596	1,056002	0,040596	0,000000
			0,040696	1,343892	0,040696	1,000000
			0,040795	1,626632	0,040795	1,000000
			0,040895	1,903046	0,040895	1,000000
			0,040994	2,171604	0,040994	2,000000
			0,041094	2,430648	0,041094	2,000000
			0,041193	2,678624	0,041193	2,000000
			0,041293	2,914235	0,041293	2,000000
			0,041392	3,136492	0,041392	3,000000
			0,041492	3,344693	0,041492	3,000000
			0,041591	3,538345	0,041591	3,000000
			0,041691	3,717079	0,041691	3,000000
			0,041790	3,880574	0,041790	4,000000
			0,041890	4,028499	0,041890	4,000000
			0,041989	4,160451	0,041989	4,000000
			0,042089	4,275902	0,042089	4,000000
			0,042188	4,374144	0,042188	4,000000
			0,042288	4,454259	0,042288	4,000000
			0,042387	4,515153	0,042387	4,000000
			0,042487	4,555658	0,042487	4,000000
			0,042586	4,574713	0,042586	5,000000
			0,042686	4,571582	0,042686	5,000000
			0,042785	4,546048	0,042785	5,000000
			0,042885	4,498519	0,042885	5,000000
			0,042984	4,429987	0,042984	5,000000
			0,043084	4,341848	0,043084	5,000000
			0,043183	4,235612	0,043183	4,000000
			0,043283	4,112598	0,043283	4,000000
			0,043382	3,973708	0,043382	4,000000
			0,043481	3,819354	0,043481	4,000000
			0,043581	3,649571	0,043581	4,000000
			0,043681	3,464269	0,043681	4,000000
			0,043780	3,263545	0,043780	4,000000
			0,043880	3,047926	0,043880	4,000000
			0,043979	2,818473	0,043979	3,000000
			0,044078	2,576679	0,044078	3,000000
			0,044178	2,324221	0,044178	3,000000
			0,044278	2,062632	0,044278	3,000000
			0,044377	1,793039	0,044377	2,000000
			0,044477	1,516055	0,044477	2,000000
			0,044576	1,231880	0,044576	2,000000
			0,044675	0,940581	0,044675	2,000000
			0,044775	0,642444	0,044775	1,000000
			0,044875	0,338282	0,044875	1,000000
			0,044974	0,029562	0,044974	1,000000
			0,045074	-0,281684	0,045074	0,000000
			0,045173	-0,593156	0,045173	0,000000
			0,045273	-0,902679	0,045273	0,000000
			0,045372	-1,208550	0,045372	-1,000000
			0,045472	-1,509714	0,045472	-1,000000
			0,045571	-1,805708	0,045571	-1,000000
			0,045671	-2,096380	0,045671	-1,000000
			0,045770	-2,381510	0,045770	-2,000000
			0,045870	-2,660465	0,045870	-2,000000
			0,045969	-2,932026	0,045969	-2,000000
			0,046069	-3,194467	0,046069	-3,000000
			0,046168	-3,445847	0,046168	-3,000000
			0,046268	-3,684411	0,046268	-3,000000
			0,046367	-3,908933	0,046367	-3,000000
			0,046467	-4,118851	0,046467	-4,000000
			0,046566	-4,314136	0,046566	-4,000000
			0,046666	-4,494906	0,046666	-4,000000
			0,046765	-4,660950	0,046765	-4,000000
			0,046865	-4,811324	0,046865	-4,000000
			0,046964	-4,944228	0,046964	-5,000000
			0,047064	-5,057237	0,047064	-5,000000
			0,047163	-5,147854	0,047163	-5,000000
			0,047263	-5,214237	0,047263	-5,000000
			0,047362	-5,255836	0,047362	-5,000000
			0,047462	-5,273728	0,047462	-5,000000
			0,047561	-5,270474	0,047561	-5,000000
			0,047661	-5,249515	0,047661	-5,000000
			0,047760	-5,214237	0,047760	-5,000000
			0,047860	-5,167007	0,047860	-5,000000
			0,047959	-5,108454	0,047959	-5,000000
			0,048059	-5,037254	0,048059	-5,000000
			0,048158	-4,950493	0,048158	-5,000000
			0,048258	-4,844529	0,048258	-5,000000
			0,048357	-4,716092	0,048357	-5,000000
			0,048456	-4,563300	0,048456	-5,000000
			0,048556	-4,386290	0,048556	-5,000000
			0,048656	-4,187265	0,048656	-5,000000
			0,048755	-3,969979	0,048755	-4,000000
			0,048855	-3,738800	0,048855	-4,000000
			0,048954	-3,497674	0,048954	-4,000000
			0,049053	-3,249289	0,049053	-4,000000
			0,049153	-2,994678	0,049153	-4,000000
			0,049253	-2,733370	0,049253	-3,000000
			0,049352	-2,463986	0,049352	-3,000000
			0,049452	-2,185075	0,049452	-3,000000
			0,049551	-1,895917	0,049551	-3,000000
			0,049651	-1,597025	0,049651	-2,000000
			0,049750	-1,290235	0,049750	-2,000000
			0,049850	-0,978371	0,049850	-2,000000
			0,049949	-0,664643	0,049949	-1,000000
			0,050049	-0,351980	0,050049	-1,000000
			0,050148	-0,042532	0,050148	-1,000000
			0,050248	0,262538	0,050248	-1,000000
			0,050347	0,562918	0,050347	0,000000
			0,050447	0,858766	0,050447	0,000000
			0,050546	1,150236	0,050546	0,000000
			0,050646	1,437074	0,050646	1,000000
			0,050745	1,718421	0,050745	1,000000
			0,050845	1,992860	0,050845	1,000000
			0,050944	2,258645	0,050944	2,000000
			0,051044	2,514032	0,051044	2,000000
			0,051143	2,757554	0,051143	2,000000
			0,051243	2,988176	0,051243	2,000000
			0,051342	3,205280	0,051342	3,000000
			0,051442	3,408514	0,051442	3,000000
			0,051541	3,597598	0,051541	3,000000
			0,051641	3,772142	0,051641	3,000000
			0,051740	3,931568	0,051740	3,000000
			0,051840	4,075129	0,051840	4,000000
			0,051939	4,201992	0,051939	4,000000
			0,052039	4,311342	0,052039	4,000000
			0,052138	4,402447	0,052138	4,000000
			0,052238	4,474656	0,052238	4,000000
			0,052337	4,527353	0,052337	4,000000
			0,052437	4,559905	0,052437	4,000000
			0,052536	4,571670	0,052536	4,000000
			0,052636	4,562071	0,052636	5,000000
			0,052735	4,530750	0,052735	5,000000
			0,052835	4,477744	0,052835	5,000000
			0,052934	4,403602	0,052934	5,000000
			0,053034	4,309395	0,053034	5,000000
			0,053133	4,196572	0,053133	4,000000
			0,053233	4,066703	0,053233	4,000000
			0,053332	3,921180	0,053332	4,000000
			0,053432	3,760969	0,053432	4,000000
			0,053531	3,586511	0,053531	4,000000
			0,053631	3,397814	0,053631	4,000000
			0,053730	3,194703	0,053730	4,000000
			0,053830	2,977144	0,053830	4,000000
			0,053929	2,745538	0,053929	3,000000
			0,054029	2,500856	0,054029	3,000000
			0,054128	2,244587	0,054128	3,000000
			0,054228	1,978492	0,054228	3,000000
			0,054327	1,704269	0,054327	2,000000
			0,054427	1,423258	0,054427	2,000000
			0,054526	1,136272	0,054526	2,000000
			0,054626	0,843661	0,054626	2,000000
			0,054725	0,545555	0,054725	1,000000
			0,054825	0,242223	0,054825	1,000000
			0,054924	-0,065604	0,054924	1,000000
			0,055024	-0,376548	0,055024	0,000000
			0,055123	-0,688638	0,055123	0,000000
			0,055223	-0,999568	0,055223	0,000000
			0,055322	-1,307083	0,055322	0,000000
			0,055422	-1,609350	0,055422	-1,000000
			0,055521	-1,905189	0,055521	-1,000000
			0,055621	-2,194063	0,055621	-1,000000
			0,055720	-2,475850	0,055720	-2,000000
			0,055820	-2,750474	0,055820	-2,000000
			0,055919	-3,017531	0,055919	-2,000000
			0,056019	-3,276051	0,056019	-3,000000
			0,056118	-3,524483	0,056118	-3,000000
			0,056218	-3,760903	0,056218	-3,000000
			0,056317	-3,983364	0,056317	-3,000000
			0,056417	-4,190249	0,056417	-4,000000
			0,056516	-4,380493	0,056516	-4,000000
			0,056616	-4,553591	0,056616	-4,000000
			0,056715	-4,709394	0,056715	-4,000000
			0,056815	-4,847786	0,056815	-4,000000
			0,056914	-4,968383	0,056914	-5,000000
			0,057014	-5,070392	0,057014	-5,000000
			0,057113	-5,152710	0,057113	-5,000000
			0,057213	-5,214237	0,057213	-5,000000
			0,057312	-5,254296	0,057312	-5,000000
			0,057412	-5,272993	0,057412	-5,000000
			0,057511	-5,271344	0,057511	-5,000000
			0,057611	-5,251092	0,057611	-5,000000
			0,057710	-5,214237	0,057710	-5,000000
			0,057810	-5,162404	0,057810	-5,000000
			0,057909	-5,096277	0,057909	-5,000000
			0,058009	-5,015289	0,058009	-5,000000
			0,058108	-4,917717	0,058108	-5,000000
			0,058208	-4,801184	0,058208	-5,000000
			0,058307	-4,663420	0,058307	-5,000000
			0,058407	-4,503074	0,058407	-5,000000
			0,058506	-4,320293	0,058506	-5,000000
			0,058606	-4,116891	0,058606	-5,000000
			0,058705	-3,896037	0,058705	-5,000000
			0,058805	-3,661544	0,058805	-4,000000
			0,058904	-3,416995	0,058904	-4,000000
			0,059004	-3,164961	0,059004	-4,000000
			0,059103	-2,906578	0,059103	-4,000000
			0,059203	-2,641581	0,059203	-3,000000
			0,059302	-2,368795	0,059302	-3,000000
			0,059402	-2,086897	0,059402	-3,000000
			0,059501	-1,795199	0,059501	-3,000000
			0,059601	-1,494192	0,059601	-2,000000
			0,059700	-1,185697	0,059700	-2,000000
			0,059800	-0,872577	0,059800	-2,000000
			0,059899	-0,558137	0,059899	-2,000000
			0,059999	-0,245422	0,059999	-1,000000
			0,060098	0,063356	0,060098	-1,000000
			0,060198	0,367076	0,060198	-1,000000
			0,060297	0,665590	0,060297	0,000000
			0,060397	0,959304	0,060397	0,000000
			0,060496	1,248611	0,060496	0,000000
			0,060596	1,533395	0,060596	1,000000
			0,060695	1,812761	0,060695	1,000000
			0,060795	2,085069	0,060795	1,000000
			0,060894	2,348246	0,060894	1,000000
			0,060994	2,600224	0,060994	2,000000
			0,061093	2,839359	0,061093	2,000000
			0,061193	3,064668	0,061193	2,000000
			0,061292	3,275821	0,061292	3,000000
			0,061392	3,472914	0,061392	3,000000
			0,061491	3,656117	0,061491	3,000000
			0,061591	3,825335	0,061591	3,000000
			0,061690	3,980013	0,061690	3,000000
			0,061790	4,119133	0,061790	3,000000
			0,061889	4,241389	0,061889	4,000000
			0,061989	4,345458	0,061989	4,000000
			0,062088	4,430250	0,062088	4,000000
			0,062188	4,495054	0,062188	5,000000
			0,062287	4,539533	0,062287	5,000000
			0,062387	4,563596	0,062387	5,000000
			0,062486	4,567231	0,062486	5,000000
			0,062586	4,550376	0,062586	4,000000
			0,062685	4,512902	0,062685	4,000000
			0,062785	4,454718	0,062785	4,000000
			0,062884	4,375950	0,062884	4,000000
			0,062983	4,277103	0,062983	4,000000
			0,063083	4,159131	0,063083	5,000000
			0,063183	4,023358	0,063183	5,000000
			0,063282	3,871262	0,063282	5,000000
			0,063382	3,704196	0,063382	5,000000
			0,063481	3,523148	0,063481	4,000000
			0,063580	3,328630	0,063580	3,000000
			0,063680	3,120761	0,063680	2,000000
			0,063780	2,899494	0,063780	2,000000
			0,063879	2,664931	0,063879	2,000000
			0,063979	2,417591	0,063979	3,000000
			0,064078	2,158527	0,064078	4,000000
			0,064177	1,889252	0,064177	5,000000
			0,064277	1,611481	0,064277	5,000000
			0,064377	1,326810	0,064377	4,000000
			0,064476	1,036441	0,064476	2,000000
			0,064576	0,741073	0,064576	0,000000
			0,064675	0,441017	0,064675	-2,000000
			0,064774	0,136498	0,064774	-4,000000
			0,064874	-0,171973	0,064874	-3,000000
			0,064974	-0,483288	0,064974	0,000000
			0,065073	-0,795637	0,065073	3,000000
			0,065173	-1,106656	0,065173	7,000000
			0,065272	-1,413802	0,065272	8,000000
			0,065371	-1,714830	0,065371	6,000000
			0,065471	-2,008200	0,065471	1,000000
			0,065571	-2,293271	0,065571	-7,000000
			0,065670	-2,570189	0,065670	-14,000000
			0,065770	-2,839497	0,065770	-18,000000
			0,065869	-3,101598	0,065869	-15,000000
			0,065968	-3,356244	0,065968	-7,000000
			0,066068	-3,602226	0,066068	7,000000
			0,066168	-3,837394	0,066168	19,000000
			0,066267	-4,058984	0,066267	27,000000
			0,066367	-4,264166	0,066367	22,000000
			0,066466	-4,450624	0,066466	5,000000
			0,066565	-4,616982	0,066565	-22,000000
			0,066665	-4,762938	0,066665	-49,000000
			0,066765	-4,889085	0,066765	-63,000000
			0,066864	-4,996488	0,066864	-55,000000
			0,066964	-5,086184	0,066964	-22,000000
			0,067063	-5,158774	0,067063	30,000000
			0,067162	-5,214237	0,067162	83,000000
			0,067262	-5,252025	0,067262	112,000000
			0,067362	-5,271356	0,067362	99,000000
			0,067461	-5,271577	0,067461	31,000000
			0,067561	-5,252453	0,067561	-70,000000
			0,067660	-5,214237	0,067660	-196,000000
			0,067760	-5,157527	0,067760	-243,000000
			0,067859	-5,082951	0,067859	-219,000000
			0,067959	-4,990833	0,067959	-87,000000
			0,068058	-4,880985	0,068058	125,000000
			0,068158	-4,752739	0,068158	230,000000
			0,068257	-4,605230	0,068257	463,000000
			0,068357	-4,437838	0,068357	476,000000
			0,068456	-4,250644	0,068456	186,000000
			0,068556	-4,044714	0,068556	-265,000000
			0,068655	-3,822096	0,068655	-1134,000000
			0,068755	-3,585506	0,068755	-1063,000000
			0,068854	-3,337793	0,068854	-943,000000
			0,068954	-3,081350	0,068954	-455,000000
			0,069053	-2,817677	0,069053	446,000000
			0,069153	-2,547241	0,069153	1054,000000
			0,069252	-2,269685	0,069252	2415,000000
			0,069352	-1,984315	0,069352	2144,000000
			0,069451	-1,690702	0,069451	954,000000
			0,069551	-1,389193	0,069551	-2122,000000
			0,069650	-1,081159	0,069650	-269,000000
			0,069750	-0,768900	0,069750	-19880,000000
			0,069849	-0,455249	0,069849	-5818,000000
			0,069949	-0,143013	0,069949	-1458,000000
			0,070048	0,165553	0,070048	-5520,000000
			0,070148	0,469064	0,070148	5324,000000
			0,070247	0,767014	0,070247	-67929,000000
			0,070347	1,059496	0,070347	14907,000000
			0,070446	1,346745	0,070446	12999,000000
			0,070546	1,628670	0,070546	-6400,000000
			0,070645	1,904550	0,070645	-305596,000000
			0,070745	2,172984	0,070745	57160,000000
			0,070844	2,432109	0,070844	-29329,000000
			0,070944	2,679979	0,070944	3011,000000
			0,071043	2,914972	0,071043	-57399,000000
			0,071143	3,136059	0,071143	34067,000000
			0,071242	3,342855	0,071242	2523385,000000
			0,071342	3,535434	0,071342	-110183,000000
			0,071441	3,713998	0,071441	-29279,000000
			0,071541	3,878511	0,071541	-169509,000000
			0,071640	4,028457	0,071640	-1202188,000000
			0,071739	4,162783	0,071739	3665831,000000
			0,071839	4,280049	0,071839	-9613,000000
			0,071939	4,378719	0,071939	256932,000000
			0,072038	4,457476	0,072038	-804170,000000
			0,072138	4,515452	0,072138	-2940586,000000
			0,072237	4,552297	0,072237	-2,724977E+7
			0,072336	4,568096	0,072336	23537,000000
			0,072436	4,563170	0,072436	-261298,000000
			0,072536	4,537880	0,072536	1145545,000000
			0,072635	4,492504	0,072635	-1,365803E+7
			0,072735	4,427235	0,072735	5,712219E+7
			0,072834	4,342292	0,072834	-3180521,000000
			0,072933	4,238074	0,072933	-3366707,000000
			0,073033	4,115281	0,073033	-2016300,000000
			0,073133	3,974914	0,073133	-1,939715E+7
			0,073232	3,818161	0,073232	2,686702E+8
			0,073332	3,646195	0,073332	3,552106E+7
			0,073431	3,459962	0,073431	-7089757,000000
			0,073530	3,260071	0,073530	2,478064E+7
			0,073630	3,046820	0,073630	3,582601E+7
			0,073730	2,820380	0,073730	1,354488E+9
			0,073829	2,581058	0,073829	1,651887E+7
			0,073929	2,329532	0,073929	-7,861533E+7
			0,074028	2,066962	0,074028	-1,288977E+8
			0,074127	1,794913	0,074127	1,225811E+9
			0,074227	1,515101	0,074227	-2,147484E+9
			0,074327	1,229062	0,074327	6,817344E+8
			0,074426	0,937868	0,074426	-1,643474E+8
			0,074526	0,642019	0,074526	2,748056E+7
			0,074625	0,341579	0,074625	2,147484E+9
			0,074724	0,036525	0,074724	2,147484E+9
			0,074824	-0,272800	0,074824	1,037639E+9
			0,074924	-0,585310	0,074924	-2,057802E+8
			0,075023	-0,899017	0,075023	-4,045155E+8
			0,075123	-1,211194	0,075123	2,147484E+9
			0,075222	-1,518825	0,075222	2,147484E+9
			0,075321	-1,819211	0,075321	-2,147484E+9
			0,075421	-2,110530	0,075421	-2,147484E+9
			0,075521	-2,392146	0,075521	-2,147484E+9
			0,075620	-2,664528	0,075620	-2,147484E+9
			0,075720	-2,928795	0,075720	-2,147484E+9
			0,075819	-3,186003	0,075819	-2,147484E+9
			0,075918	-3,436416	0,075918	2,147484E+9
			0,076018	-3,679000	0,076018	2,147484E+9
			0,076118	-3,911336	0,076118	-2,147484E+9
			0,076217	-4,129987	0,076217	-2,147484E+9
			0,076317	-4,331240	0,076317	-2,147484E+9
			0,076416	-4,511968	0,076416	2,147484E+9
			0,076516	-4,670363	0,076516	2,147484E+9
			0,076615	-4,806283	0,076615	-2,147484E+9
			0,076715	-4,921127	0,076715	-2,147484E+9
			0,076814	-5,017250	0,076814	2,147484E+9
			0,076914	-5,097142	0,076914	2,147484E+9
			0,077013	-5,162612	0,077013	2,147484E+9
			0,077113	-5,214237	0,077113	-2,147484E+9
			0,077212	-5,251240	0,077212	-2,147484E+9
			0,077312	-5,271803	0,077312	-2,147484E+9
			0,077411	-5,273675	0,077411	2,147484E+9
			0,077511	-5,254877	0,077511	2,147484E+9
			0,077610	-5,214237	0,077610	2,147484E+9
			0,077710	-5,151624	0,077710	2,147484E+9
			0,077809	-5,067813	0,077809	2,147484E+9
			0,077909	-4,964090	0,077909	-2,147484E+9
			0,078008	-4,841757	0,078008	2,147484E+9
			0,078108	-4,701745	0,078108	2,147484E+9
			0,078207	-4,544477	0,078207	-2,147484E+9
			0,078307	-4,370002	0,078307	-2,147484E+9
			0,078406	-4,178338	0,078406	-2,147484E+9
			0,078506	-3,969868	0,078506	-2,147484E+9
			0,078605	-3,745605	0,078605	-2,147484E+9
			0,078705	-3,507227	0,078705	2,147484E+9
			0,078804	-3,256849	0,078804	2,147484E+9
			0,078904	-2,996614	0,078904	2,147484E+9
			0,079003	-2,728273	0,079003	-2,147484E+9
			0,079103	-2,452902	0,079103	-2,147484E+9
			0,079202	-2,170875	0,079202	-2,147484E+9
			0,079302	-1,882110	0,079302	-2,147484E+9
			0,079401	-1,586491	0,079401	-2,147484E+9
			0,079501	-1,284319	0,079501	-2,147484E+9
			0,079600	-0,976621	0,079600	2,147484E+9
			0,079700	-0,665198	0,079700	-2,147484E+9
			0,079799	-0,352408	0,079799	2,147484E+9
			0,079899	-0,040750	0,079899	-2,147484E+9
			0,079998	0,267587	0,079998	-2,147484E+9
			0,080098	0,571052	0,080098	2,147484E+9
			0,080197	0,868829	0,080197	2,147484E+9
			0,080297	1,160665	0,080297	-2,147484E+9
			0,080396	1,446518	0,080396	2,147484E+9
			0,080496	1,726162	0,080496	2,147484E+9
			0,080595	1,998889	0,080595	-2,147484E+9
			0,080695	2,263437	0,080695	2,147484E+9
			0,080794	2,518141	0,080794	-2,147484E+9
			0,080894	2,761261	0,080894	2,147484E+9
			0,080993	2,991339	0,080993	-2,147484E+9
			0,081093	3,207451	0,081093	2,147484E+9
			0,081192	3,409258	0,081192	2,147484E+9
			0,081292	3,596833	0,081292	-2,147484E+9
			0,081391	3,770346	0,081391	2,147484E+9
			0,081491	3,929711	0,081491	2,147484E+9
			0,081590	4,074352	0,081590	2,147484E+9
			0,081689	4,203153	0,081689	2,147484E+9
			0,081789	4,314617	0,081789	2,147484E+9
			0,081889	4,407173	0,081889	2,147484E+9
			0,081988	4,479497	0,081988	2,147484E+9
			0,082088	4,530750	0,082088	-2,147484E+9
			0,082187	4,560641	0,082187	2,147484E+9
			0,082286	4,569328	0,082286	2,147484E+9
			0,082386	4,557206	0,082386	2,147484E+9
			0,082486	4,524692	0,082486	2,147484E+9
			0,082585	4,472107	0,082585	2,147484E+9
			0,082685	4,399687	0,082685	2,147484E+9
			0,082784	4,307722	0,082784	2,147484E+9
			0,082883	4,196726	0,082883	2,147484E+9
			0,082983	4,067552	0,082983	-2,147484E+9
			0,083083	3,921370	0,083083	-2,147484E+9
			0,083182	3,759493	0,083182	-2,147484E+9
			0,083282	3,583114	0,083282	2,147484E+9
			0,083381	3,393056	0,083381	-2,147484E+9
			0,083480	3,189661	0,083480	2,147484E+9
			0,083580	2,972878	0,083580	-2,147484E+9
			0,083680	2,742550	0,083680	-2,147484E+9
			0,083779	2,498802	0,083779	2,147484E+9
			0,083879	2,242372	0,083879	2,147484E+9
			0,083978	1,974749	0,083978	-2,147484E+9
			0,084077	1,698024	0,084077	-2,147484E+9
			0,084177	1,414495	0,084177	2,147484E+9
			0,084277	1,126140	0,084277	-2,147484E+9
			0,084376	0,834167	0,084376	2,147484E+9
			0,084476	0,538826	0,084476	2,147484E+9
			0,084575	0,239590	0,084575	2,147484E+9
			0,084674	-0,064319	0,084674	-2,147484E+9
			0,084774	-0,373231	0,084774	-2,147484E+9
			0,084874	-0,686397	0,084874	-2,147484E+9
			0,084973	-1,001683	0,084973	2,147484E+9
			0,085073	-1,315732	0,085073	-2,147484E+9
			0,085172	-1,624592	0,085172	2,147484E+9
			0,085272	-1,924629	0,085272	2,147484E+9
			0,085371	-2,213415	0,085371	-2,147484E+9
			0,085471	-2,490284	0,085471	-2,147484E+9
			0,085570	-2,756318	0,085570	-2,147484E+9
			0,085670	-3,013732	0,085670	2,147484E+9
			0,085769	-3,264830	0,085769	2,147484E+9
			0,085869	-3,510851	0,085869	2,147484E+9
			0,085968	-3,751108	0,085968	2,147484E+9
			0,086068	-3,982727	0,086068	-2,147484E+9
			0,086167	-4,201113	0,086167	2,147484E+9
			0,086267	-4,401017	0,086267	2,147484E+9
			0,086366	-4,577901	0,086366	-2,147484E+9
			0,086466	-4,729146	0,086466	-2,147484E+9
			0,086565	-4,854728	0,086565	2,147484E+9
			0,086665	-4,957118	0,086665	-2,147484E+9
			0,086764	-5,040445	0,086764	-2,147484E+9
			0,086864	-5,109163	0,086864	-2,147484E+9
			0,086963	-5,166663	0,086963	2,147484E+9
			0,087063	-5,214237	0,087063	-2,147484E+9
			0,087162	-5,250733	0,087162	2,147484E+9
			0,087262	-5,272965	0,087262	2,147484E+9
			0,087361	-5,276719	0,087361	-2,147484E+9
			0,087461	-5,258021	0,087461	2,147484E+9
			0,087560	-5,214237	0,087560	-2,147484E+9
			0,087660	-5,144687	0,087660	2,147484E+9
			0,087759	-5,050620	0,087759	-2,147484E+9
			0,087859	-4,934607	0,087859	-2,147484E+9
			0,087958	-4,799631	0,087958	-2,147484E+9
			0,088058	-4,648201	0,088058	2,147484E+9
			0,088157	-4,481794	0,088157	-2,147484E+9
			0,088257	-4,300775	0,088257	2,147484E+9
			0,088356	-4,104781	0,088356	2,147484E+9
			0,088456	-3,893356	0,088456	2,147484E+9
			0,088555	-3,666564	0,088555	-2,147484E+9
			0,088655	-3,425353	0,088655	-2,147484E+9
			0,088754	-3,171521	0,088754	-2,147484E+9
			0,088854	-2,907334	0,088854	-2,147484E+9
			0,088953	-2,634968	0,088953	-2,147484E+9
			0,089053	-2,356013	0,089053	2,147484E+9
			0,089152	-2,071239	0,089152	2,147484E+9
			0,089252	-1,780722	0,089252	2,147484E+9
			0,089351	-1,484271	0,089351	2,147484E+9
			0,089451	-1,181973	0,089451	2,147484E+9
			0,089550	-0,874632	0,089550	-2,147484E+9
			0,089650	-0,563931	0,089650	-2,147484E+9
			0,089749	-0,252228	0,089749	-2,147484E+9
			0,089849	0,057908	0,089849	-2,147484E+9
			0,089948	0,364262	0,089948	-2,147484E+9
			0,090048	0,665392	0,090048	2,147484E+9
			0,090147	0,960746	0,090147	2,147484E+9
			0,090247	1,250426	0,090247	2,147484E+9
			0,090346	1,534687	0,090346	2,147484E+9
			0,090446	1,813384	0,090446	2,147484E+9
			0,090545	2,085579	0,090545	-2,147484E+9
			0,090645	2,349483	0,090645	-2,147484E+9
			0,090744	2,602756	0,090744	-2,147484E+9
			0,090844	2,843066	0,090844	-2,147484E+9
			0,090943	3,068678	0,090943	-2,147484E+9
			0,091043	3,278843	0,091043	2,147484E+9
			0,091142	3,473830	0,091142	2,147484E+9
			0,091242	3,654571	0,091242	2,147484E+9
			0,091341	3,822045	0,091341	2,147484E+9
			0,091441	3,976635	0,091441	2,147484E+9
			0,091540	4,117697	0,091540	-2,147484E+9
			0,091640	4,243517	0,091640	-2,147484E+9
			0,091739	4,351671	0,091739	-2,147484E+9
			0,091839	4,439658	0,091839	-2,147484E+9
			0,091938	4,505579	0,091938	-2,147484E+9
			0,092038	4,548598	0,092038	2,147484E+9
			0,092137	4,569030	0,092137	2,147484E+9
			0,092236	4,568042	0,092236	2,147484E+9
			0,092336	4,547083	0,092336	2,147484E+9
			0,092436	4,507301	0,092436	2,147484E+9
			0,092535	4,449159	0,092535	-2,147484E+9
			0,092635	4,372425	0,092635	-2,147484E+9
			0,092734	4,276500	0,092734	-2,147484E+9
			0,092833	4,160961	0,092833	-2,147484E+9
			0,092933	4,026054	0,092933	-2,147484E+9
			0,093033	3,872925	0,093033	2,147484E+9
			0,093132	3,703461	0,093132	2,147484E+9
			0,093232	3,519795	0,093232	2,147484E+9
			0,093331	3,323668	0,093331	2,147484E+9
			0,093430	3,115928	0,093430	2,147484E+9
			0,093530	2,896387	0,093530	-2,147484E+9
			0,093630	2,664143	0,093630	-2,147484E+9
			0,093729	2,418266	0,093729	-2,147484E+9
			0,093829	2,158577	0,093829	-2,147484E+9
			0,093928	1,886211	0,093928	-2,147484E+9
			0,094027	1,603684	0,094027	2,147484E+9
			0,094127	1,314394	0,094127	2,147484E+9
			0,094227	1,021698	0,094227	2,147484E+9
			0,094326	0,727908	0,094326	2,147484E+9
			0,094426	0,433605	0,094426	2,147484E+9
			0,094525	0,137602	0,094525	-2,147484E+9
			0,094625	-0,162371	0,094625	-2,147484E+9
			0,094724	-0,468440	0,094724	-2,147484E+9
			0,094824	-0,781261	0,094824	-2,147484E+9
			0,094923	-1,099097	0,094923	-2,147484E+9
			0,095023	-1,417720	0,095023	2,147484E+9
			0,095122	-1,731258	0,095122	2,147484E+9
			0,095222	-2,033766	0,095222	2,147484E+9
			0,095321	-2,320997	0,095321	2,147484E+9
			0,095421	-2,591731	0,095421	2,147484E+9
			0,095520	-2,848107	0,095520	-2,147484E+9
			0,095620	-3,094745	0,095620	-2,147484E+9
			0,095719	-3,336885	0,095719	-2,147484E+9
			0,095819	-3,578126	0,095819	-2,147484E+9
			0,095918	-3,818576	0,095918	-2,147484E+9
			0,096018	-4,054119	0,096018	2,147484E+9
			0,096117	-4,277159	0,096117	2,147484E+9
			0,096217	-4,478688	0,096217	2,147484E+9
			0,096316	-4,651036	0,096316	2,147484E+9
			0,096416	-4,790377	0,096416	2,147484E+9
			0,096515	-4,898073	0,096515	-2,147484E+9
			0,096615	-4,980328	0,096615	-2,147484E+9
			0,096714	-5,046164	0,096714	-2,147484E+9
			0,096814	-5,104354	0,096814	-2,147484E+9
			0,096913	-5,160343	0,096913	-2,147484E+9
			0,097013	-5,214237	0,097013	2,147484E+9
			0,097112	-5,260617	0,097112	2,147484E+9
			0,097212	-5,290321	0,097212	2,147484E+9
			0,097311	-5,293607	0,097311	2,147484E+9
			0,097411	-5,263626	0,097411	2,147484E+9
			0,097510	-5,198938	0,097510	-2,147484E+9
			0,097610	-5,104111	0,097610	-2,147484E+9
			0,097709	-4,988084	0,097709	-2,147484E+9
			0,097809	-4,860807	0,097809	-2,147484E+9
			0,097908	-4,729307	0,097908	-2,147484E+9
			0,098008	-4,594658	0,098008	2,147484E+9
			0,098107	-4,451071	0,098107	2,147484E+9
			0,098207	-4,287675	0,098207	2,147484E+9
			0,098306	-4,092596	0,098306	2,147484E+9
			0,098406	-3,858087	0,098406	2,147484E+9
			0,098505	-3,584973	0,098505	-2,147484E+9
			0,098605	-3,284737	0,098605	-2,147484E+9
			0,098704	-2,978258	0,098704	-2,147484E+9
			0,098804	-2,691226	0,098804	-2,147484E+9
			0,098903	-2,447405	0,098903	-2,147484E+9
			0,099003	-2,261674	0,099003	2,147484E+9
			0,099102	-2,135007	0,099102	2,147484E+9
			0,099202	-2,053056	0,099202	2,147484E+9
			0,099301	-1,988973	0,099301	2,147484E+9
			0,099401	-1,909830	0,099401	2,147484E+9

